acc_x[mg],acc_y[mg],acc_z[mg],gyro_x[dps],gyro_y[dps],gyro_z[dps]
1027.24,-188.368,-259.128,-99.82,-112.28,15.82
1017.968,-168.36,-296.216,-97.93,-110.6,16.87
995.032,-159.088,-309.392,-95.83,-108.57,17.99
988.688,-145.424,-319.64,-93.38,-106.12,18.69
1014.552,-133.712,-355.264,-90.37,-103.11,19.04
1012.112,-116.144,-376.248,-86.94,-99.82,19.25
995.032,-104.92,-392.352,-83.09,-96.04,18.97
974.536,-101.016,-410.896,-78.96,-91.91,17.99
952.088,-95.16,-423.584,-74.62,-87.43,16.87
937.448,-85.4,-440.664,-70.28,-82.88,16.24
930.616,-81.008,-455.304,-66.01,-78.33,16.73
914.512,-78.08,-466.528,-61.74,-73.78,17.92
895.48,-73.688,-470.92,-57.54,-69.09,20.16
883.768,-67.344,-478.24,-53.48,-64.26,23.45
880.84,-57.584,-492.392,-49.56,-59.5,27.58
878.4,-51.728,-509.472,-45.85,-54.95,31.43
860.344,-61.976,-502.64,-42.42,-50.75,33.81
851.072,-71.248,-486.048,-39.48,-46.97,34.02
851.56,-69.784,-496.784,-36.89,-43.61,32.83
853.512,-68.808,-504.592,-34.65,-40.74,30.66
863.76,-73.688,-497.76,-32.69,-38.36,27.72
869.128,-86.376,-493.856,-30.87,-36.47,24.01
879.376,-85.4,-479.704,-29.26,-34.93,20.37
902.8,-93.208,-467.504,-27.79,-33.74,17.57
911.584,-96.624,-452.864,-26.46,-32.97,15.61
909.144,-106.872,-450.912,-25.2,-32.34,14.28
901.824,-114.192,-464.088,-24.01,-31.57,13.65
888.16,-116.144,-471.896,-22.75,-30.52,14.21
873.52,-113.216,-470.92,-21.49,-29.12,16.1
876.936,-116.144,-481.656,-20.02,-27.37,19.04
873.52,-115.168,-481.168,-18.55,-25.62,22.33
862.296,-102.968,-467.992,-16.94,-23.8,25.41
858.88,-91.256,-475.8,-15.12,-21.77,27.58
856.928,-78.568,-494.832,-13.23,-19.74,28.7
848.632,-64.904,-489.464,-11.06,-17.57,28.77
850.096,-53.192,-484.584,-8.68,-15.47,28.21
850.584,-42.456,-484.584,-6.23,-13.51,27.02
845.704,-40.992,-483.12,-3.57,-11.55,25.34
841.8,-40.016,-484.584,-0.98,-9.73,23.1
842.288,-40.016,-492.88,1.61,-7.84,20.72
841.312,-36.112,-493.856,4.27,-6.09,18.48
839.36,-44.408,-499.224,6.93,-4.41,16.38
844.24,-54.656,-504.592,9.52,-2.8,14.7
859.856,-60.024,-510.448,11.97,-1.4,13.79
870.592,-59.048,-505.568,14.49,-0.21,14.07
872.544,-67.832,-508.008,16.87,0.77,15.4
865.712,-78.08,-512.888,19.18,1.75,17.08
854.0,-84.912,-515.816,21.35,2.66,18.48
849.608,-88.816,-517.768,23.38,3.71,19.46
844.728,-100.04,-521.184,25.27,4.69,20.23
841.8,-116.632,-534.848,27.23,5.67,21.35
839.848,-121.024,-548.512,29.05,6.79,23.52
826.184,-130.296,-549.488,30.94,7.98,26.67
809.592,-153.72,-548.512,32.76,9.31,29.96
813.008,-175.192,-565.104,34.37,10.57,32.97
718.336,-106.872,-587.552,35.91,11.76,35.0
833.504,-204.96,-645.136,37.66,12.81,31.71
885.232,-303.048,-621.224,38.15,12.32,23.94
903.288,-254.248,-557.296,37.59,11.06,17.01
877.912,-238.632,-545.096,37.38,9.94,14.7
870.592,-291.824,-585.112,37.31,9.1,16.45
858.88,-318.176,-612.44,36.75,8.4,19.95
813.984,-314.76,-626.104,36.33,7.91,24.36
785.192,-300.12,-625.128,36.05,7.84,29.61
778.848,-311.344,-639.28,36.12,8.05,35.07
777.384,-325.496,-649.04,36.05,8.26,40.25
775.92,-327.448,-657.824,35.91,8.4,44.66
752.496,-317.688,-650.992,35.77,8.47,48.44
725.168,-316.224,-643.672,35.63,8.54,51.03
686.616,-318.664,-633.912,35.21,8.61,51.24
650.016,-323.056,-619.272,34.79,8.68,47.88
621.224,-337.208,-600.728,34.02,8.68,40.81
565.592,-252.296,-556.808,32.83,8.68,31.08
566.568,-301.584,-478.728,32.06,8.61,19.11
640.256,-409.92,-478.24,30.03,7.91,5.04
652.944,-408.944,-557.784,26.6,6.23,-9.87
678.32,-409.432,-589.016,22.96,4.34,-22.12
708.088,-399.672,-582.672,19.39,2.52,-29.05
745.176,-397.72,-596.336,16.1,0.63,-29.82
775.432,-400.16,-622.2,13.09,-1.33,-25.69
799.832,-406.016,-642.208,10.15,-3.57,-18.97
816.912,-417.24,-657.336,7.28,-6.09,-11.34
833.504,-421.632,-668.072,4.34,-8.75,-3.78
839.848,-423.584,-670.024,1.26,-11.48,3.64
821.304,-427.976,-663.68,-1.89,-14.28,10.29
804.224,-432.368,-649.04,-5.25,-16.8,15.4
782.264,-439.688,-638.304,-8.89,-18.97,18.13
761.768,-445.544,-633.912,-12.6,-20.93,18.62
736.88,-440.664,-618.784,-16.38,-22.4,17.29
713.456,-434.32,-601.216,-20.02,-23.52,14.98
708.088,-433.344,-607.072,-23.45,-24.08,12.18
697.84,-425.048,-593.408,-26.67,-24.22,9.1
688.08,-426.512,-575.84,-29.68,-23.87,5.88
693.448,-430.416,-584.624,-32.34,-23.1,2.45
699.792,-420.168,-588.04,-34.72,-22.12,-0.28
704.184,-406.504,-584.624,-36.75,-20.79,-1.75
710.04,-391.376,-586.576,-38.15,-19.18,-1.68
720.776,-371.368,-593.408,-39.27,-17.36,-0.21
727.12,-354.288,-600.728,-39.76,-15.33,2.73
712.48,-348.432,-607.56,-39.9,-13.09,6.02
691.496,-349.896,-599.752,-39.76,-10.43,8.75
679.784,-361.12,-596.336,-39.48,-7.56,10.01
673.928,-364.048,-591.456,-39.27,-4.55,9.52
672.952,-359.656,-580.72,-39.06,-1.54,7.84
686.616,-354.288,-574.864,-38.64,1.33,5.81
716.872,-343.552,-578.28,-38.01,3.92,4.41
758.84,-336.232,-576.816,-37.17,6.23,4.13
806.664,-352.824,-558.272,-36.33,7.84,4.83
844.728,-372.832,-543.144,-35.49,8.96,5.46
864.736,-373.808,-532.896,-34.72,9.52,5.46
871.08,-365.024,-526.552,-33.88,9.8,4.97
882.792,-354.288,-519.232,-32.76,10.08,4.41
894.504,-345.992,-519.72,-31.22,10.43,3.99
897.432,-343.552,-506.544,-29.47,10.64,3.85
889.624,-345.504,-477.264,-27.44,10.85,3.85
878.888,-339.648,-459.208,-25.27,11.27,3.99
869.616,-328.912,-449.936,-22.68,11.9,4.55
874.496,-310.368,-453.84,-19.74,12.81,5.53
880.352,-304.512,-466.528,-16.38,13.72,6.65
867.176,-292.8,-463.112,-12.67,14.77,7.91
859.368,-279.624,-442.616,-8.54,16.03,9.38
851.56,-280.112,-427.0,-4.06,17.43,11.27
851.072,-289.384,-427.0,0.56,18.9,12.88
851.072,-305.488,-443.592,5.25,20.3,13.58
854.488,-305.0,-457.744,9.94,21.7,13.65
857.904,-298.656,-452.864,14.91,23.03,14.21
865.224,-290.36,-448.472,20.23,24.29,16.31
878.888,-295.24,-462.624,25.62,25.41,19.81
882.792,-303.048,-480.68,31.15,26.32,23.24
874.008,-303.536,-486.536,36.61,26.88,25.69
864.736,-287.432,-473.848,42.14,27.23,26.53
844.728,-281.088,-463.6,47.81,27.44,25.13
847.168,-282.064,-453.84,53.13,27.23,20.02
852.048,-343.552,-427.976,57.89,26.46,10.57
855.464,-366.976,-420.656,61.67,25.2,-2.38
854.0,-378.2,-419.192,64.75,23.73,-16.17
857.416,-399.184,-427.0,67.34,22.33,-29.12
856.928,-414.8,-443.592,69.65,21.14,-39.62
857.904,-420.656,-448.472,71.75,20.37,-46.83
853.024,-439.2,-447.984,73.99,19.88,-50.61
838.872,-448.96,-452.376,76.02,19.95,-51.52
831.552,-460.184,-462.624,78.19,20.51,-49.77
815.448,-462.136,-473.36,80.43,21.56,-45.78
803.736,-464.088,-480.192,82.74,22.96,-40.04
795.44,-481.168,-484.096,85.12,24.64,-33.39
791.536,-491.904,-471.896,87.22,26.39,-26.67
791.536,-492.392,-464.576,89.04,27.93,-20.72
799.832,-493.856,-467.016,90.65,29.33,-15.75
796.416,-503.128,-479.704,92.12,30.45,-12.6
789.584,-501.664,-472.384,93.38,31.43,-11.06
781.776,-517.28,-455.304,94.29,32.2,-10.78
783.24,-545.096,-444.08,94.85,32.83,-11.62
793.976,-567.544,-438.224,94.99,33.18,-12.53
814.96,-570.472,-431.392,94.85,33.25,-11.83
817.4,-568.52,-408.944,94.71,33.11,-8.54
819.84,-563.64,-406.504,94.57,32.97,-3.5
824.232,-525.088,-413.824,94.78,32.76,2.59
803.736,-504.104,-399.184,95.55,32.48,8.61
771.04,-509.472,-374.784,96.46,32.2,12.18
741.272,-527.04,-381.128,97.23,32.13,12.32
725.168,-525.576,-386.496,97.93,32.27,9.73
711.992,-528.016,-367.952,98.49,32.48,5.95
710.528,-542.168,-338.672,98.98,32.76,2.03
729.072,-552.416,-302.56,99.26,32.9,-1.05
757.864,-533.872,-260.592,99.54,32.83,-2.03
785.192,-510.936,-249.856,100.17,32.27,-0.49
803.736,-473.848,-239.608,101.22,31.36,3.15
759.328,-454.816,-187.88,102.76,30.17,8.26
680.272,-413.336,-122.0,104.44,29.12,13.16
656.848,-326.96,-109.8,105.28,27.93,8.4
659.776,-321.104,-88.328,105.21,26.53,-3.08
680.76,-353.8,-37.576,104.93,25.9,-12.32
692.472,-369.416,-54.168,104.72,25.62,-21.21
721.264,-402.6,-25.864,104.44,25.34,-28.63
760.792,-403.576,38.552,104.09,24.71,-32.97
835.456,-381.616,68.808,104.44,24.01,-30.31
852.536,-387.96,176.656,106.05,23.8,-18.55
826.184,-487.512,162.504,108.57,24.36,4.41
654.896,-574.864,164.944,110.95,25.2,27.23
600.728,-498.248,173.728,113.05,26.39,37.59
588.04,-490.44,231.8,115.92,28.63,36.68
647.088,-554.368,277.184,120.05,31.92,28.49
746.152,-652.456,380.152,125.93,35.7,17.99
866.2,-772.992,470.432,133.56,39.06,9.52
958.92,-881.816,595.36,142.8,41.72,5.88
1021.872,-990.152,723.704,153.72,43.82,7.91
1051.64,-1054.08,802.76,165.69,45.71,13.09
1063.84,-1033.096,849.608,177.94,47.81,17.99
1058.472,-977.952,860.832,190.19,50.26,19.04
1053.104,-956.968,867.664,202.09,53.2,13.09
1096.048,-966.728,861.32,212.87,56.21,1.4
1176.08,-964.288,868.152,222.18,58.73,-9.87
1242.448,-962.336,854.0,230.09,60.69,-16.1
1275.144,-921.832,856.44,236.39,62.09,-15.4
1250.744,-870.592,881.816,241.36,63.14,-9.1
1230.248,-818.864,828.136,245.21,63.63,-1.96
1157.048,-711.992,776.896,247.94,63.49,1.96
1033.096,-583.16,703.208,250.11,63.49,2.03
889.624,-442.616,627.568,251.93,64.54,-1.12
758.84,-326.96,590.48,253.47,66.71,-6.65
634.4,-283.04,535.336,254.38,69.3,-15.4
527.528,-268.4,508.008,253.96,72.1,-28.21
453.352,-278.16,427.488,251.86,75.11,-41.79
410.896,-279.624,397.72,248.22,77.91,-50.33
417.728,-264.984,369.904,243.32,80.15,-50.26
416.752,-244.488,341.6,237.93,81.55,-42.77
425.048,-271.328,360.632,232.12,82.25,-29.82
429.928,-302.56,366.0,226.31,81.69,-11.9
490.44,-338.672,417.24,221.06,78.96,12.11
648.064,-333.304,453.352,216.51,72.31,41.09
750.544,-305.488,381.616,212.52,60.55,67.34
826.672,-261.08,358.68,208.25,44.66,81.62
888.16,-153.72,310.856,203.7,26.6,82.6
910.608,-65.392,294.752,199.22,8.05,73.5
908.656,-35.624,303.536,194.95,-9.8,56.98
932.568,-16.104,299.632,190.54,-26.18,37.17
947.696,79.056,270.352,186.55,-40.95,19.67
937.448,123.464,233.752,183.4,-53.9,6.72
946.72,109.312,197.64,180.74,-65.1,-3.78
1003.816,3.416,183.488,177.52,-75.11,-12.67
1152.168,-87.352,209.84,172.97,-84.7,-18.76
1343.952,-132.736,213.744,167.3,-94.71,-18.76
1446.92,-71.736,201.544,161.14,-105.35,-11.27
1388.848,-0.488,130.784,155.33,-115.71,0.56
1318.576,65.392,62.464,149.94,-124.46,12.67
1301.496,269.376,5.856,145.11,-131.6,24.15
1251.72,461.16,-86.376,141.96,-137.9,32.9
1179.496,569.008,-234.24,140.0,-143.43,33.74
1169.736,748.592,-413.336,138.67,-147.77,27.16
1206.336,879.864,-531.432,138.18,-151.27,17.29
1229.76,871.08,-629.52,137.69,-154.63,4.06
1321.504,806.176,-630.008,135.73,-158.06,-10.64
1431.304,741.272,-643.672,131.74,-161.98,-21.91
1533.784,624.152,-658.8,125.93,-166.6,-28.98
1649.928,513.864,-690.52,118.16,-171.57,-31.5
1778.76,490.928,-763.232,108.64,-176.96,-26.04
1814.384,426.512,-820.816,98.0,-182.77,-12.32
1810.968,418.216,-849.608,85.68,-188.44,4.62
1792.424,312.808,-877.424,71.68,-193.83,17.5
1769.0,266.936,-906.704,55.93,-198.73,22.4
1780.712,376.736,-977.952,39.9,-202.51,24.36
1824.144,490.928,-1124.352,25.62,-205.1,27.16
1822.68,595.848,-1261.968,13.58,-206.71,26.88
1808.528,566.568,-1414.224,3.01,-207.48,18.9
1748.016,480.68,-1479.616,-7.21,-207.34,3.01
1698.24,229.848,-1593.32,-18.55,-206.22,-18.27
1653.832,-176.168,-1719.712,-32.9,-203.98,-40.25
1721.176,-586.088,-1836.832,-52.36,-201.18,-53.9
1738.744,-894.016,-1880.264,-77.42,-198.66,-49.77
1591.368,-1181.448,-1899.784,-108.08,-195.79,-30.31
1466.928,-1407.392,-1963.224,-144.48,-191.24,-2.45
1371.28,-1606.496,-2002.752,-185.85,-184.38,34.44
1519.632,-1795.84,-2067.656,-231.91,-175.07,83.02
1890.512,-1738.256,-1960.784,-281.68,-164.71,147.14
2274.568,-1566.48,-1955.904,-333.41,-154.21,218.75
2470.256,-1708.488,-1842.2,-387.17,-144.41,265.93
2453.664,-1548.424,-1965.664,-444.29,-135.24,267.47
2151.592,-1431.792,-2247.728,-502.04,-124.67,238.98
1801.696,-1599.664,-2549.312,-560.77,-110.46,195.23
1697.752,-2372.168,-2583.472,-625.17,-94.85,135.31
1907.592,-3909.856,-2299.456,-702.38,-85.05,57.05
1986.648,-6109.272,-1532.808,-800.66,-87.01,-26.6
1930.04,-7114.064,-100.528,-920.5,-97.3,-64.54
1674.328,-7151.64,904.752,-1045.38,-100.1,-6.86
1870.992,-6315.696,1536.712,-1160.18,-76.65,127.68
2751.344,-5018.592,2152.568,-1253.21,-20.37,297.5
3552.152,-3963.536,2917.752,-1318.73,67.06,463.19
3004.128,238.632,-1636.752,-1111.11,142.03,629.86
1101.904,1767.536,456.28,-465.71,112.7,725.2
-250.832,-2149.152,1682.624,-633.01,227.5,537.95
-322.08,-3291.56,1383.48,-690.62,284.41,422.45
-628.544,-57.584,1048.712,-685.16,352.87,406.14
-503.616,-755.912,879.864,-664.02,436.1,363.44
-495.32,-528.992,512.888,-607.6,498.05,252.35
-318.176,296.216,75.152,-533.96,540.82,116.76
219.6,583.648,-191.784,-451.5,570.15,39.27
877.424,69.784,-316.224,-366.31,589.26,52.01
1253.184,-361.608,-392.84,-282.59,596.4,110.74
1306.376,-674.904,-390.4,-202.37,589.89,152.53
1212.68,-903.776,-467.992,-132.23,569.87,145.67
994.544,-1108.248,-549.976,-73.64,540.96,111.02
833.504,-1019.92,-515.328,-24.5,508.83,80.22
834.48,-797.392,-681.248,21.35,476.14,71.26
760.304,-513.376,-988.2,66.43,441.56,69.65
751.032,-462.136,-878.4,108.92,403.9,55.93
640.744,-487.512,-709.064,144.97,363.16,31.43
289.872,-659.288,-308.904,172.97,322.77,4.76
-25.376,-778.36,-178.608,192.71,287.77,-17.64
-245.952,-873.032,-302.072,206.36,259.14,-29.61
-394.304,-1063.84,-400.648,215.39,235.13,-35.07
-475.8,-1333.216,-424.072,218.82,213.92,-43.68
-519.72,-1410.808,-393.816,216.79,194.6,-49.42
-598.288,-1247.328,-207.888,212.31,177.17,-39.76
-775.432,-967.216,-92.232,209.3,161.49,-16.73
-927.2,-745.176,71.736,208.81,147.7,5.11
-785.68,-589.504,273.768,210.28,134.82,18.55
-700.28,-510.448,305.488,212.73,121.03,28.56
-789.584,-441.64,261.568,215.67,107.73,35.98
-930.128,-241.56,143.472,219.59,96.95,46.34
-1095.56,4.392,92.72,225.82,89.32,65.24
-1381.04,265.96,-1.952,234.36,84.35,82.32
-1449.36,432.368,-58.56,244.23,81.34,85.05
-1320.04,452.864,-105.896,253.54,77.98,71.82
-1073.6,367.464,-6.344,260.4,72.1,47.04
-758.352,123.952,21.472,263.69,62.72,14.84
-438.712,-92.72,10.736,262.43,49.91,-14.14
-85.888,-181.048,-82.96,258.3,33.74,-27.16
175.68,-293.776,-181.048,253.26,14.07,-20.65
274.256,-303.048,-307.928,247.66,-8.33,2.03
323.056,-375.272,-341.112,242.06,-32.13,36.54
302.56,-434.32,-461.16,235.55,-56.35,75.88
245.464,-534.848,-503.128,227.36,-79.87,113.05
94.672,-381.616,-544.608,217.77,-101.22,142.8
22.448,-250.344,-479.216,208.74,-119.28,165.13
-122.488,41.968,-434.808,200.62,-134.26,178.85
-248.392,161.528,-371.856,194.32,-146.02,181.51
-244.488,136.152,-286.456,188.51,-154.84,171.78
-178.608,11.712,-265.472,181.86,-161.7,155.54
-58.072,-161.04,-182.512,173.81,-166.88,140.35
28.304,-330.376,-109.312,164.29,-170.38,130.9
212.28,-526.552,-45.384,153.51,-171.57,132.02
312.32,-623.664,52.704,141.75,-170.8,143.85
416.264,-820.328,121.512,129.29,-167.51,161.42
589.504,-857.904,87.84,115.78,-161.42,182.07
759.328,-797.88,17.568,102.34,-153.09,205.73
938.424,-752.008,96.136,89.25,-142.8,231.56
1225.856,-634.888,154.208,75.88,-131.88,258.16
1582.584,-376.248,278.16,62.65,-121.66,286.58
1841.712,21.472,397.232,50.96,-112.77,312.34
1920.768,350.384,578.28,41.58,-104.58,323.47
1975.912,791.536,702.72,35.0,-96.25,313.74
2162.328,939.4,793.976,31.5,-88.2,287.56
2385.832,1143.872,940.376,29.12,-81.55,252.77
2663.504,1113.616,924.272,27.16,-76.09,222.04
3029.504,1250.256,1036.512,24.29,-71.54,209.93
3243.736,1392.752,1010.16,21.35,-68.18,219.52
3203.232,1419.592,987.712,18.62,-65.31,239.82
3175.416,1534.272,935.008,15.4,-62.23,258.09
3107.096,1632.848,807.64,13.02,-60.06,269.36
3010.472,1551.352,765.184,11.13,-59.5,270.62
2867.976,1574.288,623.664,9.03,-59.99,260.05
2638.616,1464.976,503.128,7.56,-60.2,239.47
2458.056,1463.024,363.072,6.72,-58.73,212.17
2336.544,1427.4,249.368,7.56,-56.35,185.08
2215.032,1288.32,207.888,9.38,-54.11,164.08
2100.84,1277.096,157.624,11.13,-52.71,150.08
1985.672,1249.768,120.536,13.44,-52.64,141.82
1860.744,1221.464,124.44,15.82,-53.69,134.4
1694.336,1190.72,103.456,18.2,-55.37,121.03
1492.792,1116.544,132.736,20.79,-56.98,97.16
1362.984,1039.928,184.952,23.38,-57.68,64.75
1268.312,1009.672,223.016,26.25,-57.82,31.22
1143.384,1011.136,258.152,29.89,-57.26,2.59
1021.872,1029.68,229.36,34.72,-55.72,-18.9
922.808,994.056,192.76,40.6,-53.2,-33.6
789.096,899.872,171.776,46.97,-49.98,-43.82
698.816,773.48,168.36,52.85,-45.99,-51.03
685.64,709.552,236.68,57.61,-41.65,-56.21
714.432,542.168,177.144,61.25,-37.45,-61.18
686.128,534.36,192.272,63.7,-33.95,-62.51
689.544,511.912,178.608,66.15,-30.52,-62.58
789.096,505.568,174.216,67.76,-26.81,-63.49
623.176,402.6,283.04,69.02,-22.4,-67.69
615.856,297.68,221.064,68.95,-15.96,-73.99
880.352,340.624,234.24,68.04,-10.85,-80.29
991.128,475.8,335.744,66.92,-9.17,-85.61
1070.184,528.504,442.128,65.1,-8.33,-95.13
1058.96,596.336,455.792,61.81,-7.42,-110.11
1262.456,416.752,426.024,56.98,-6.09,-126.07
1291.736,569.496,612.928,50.82,-5.46,-133.77
1240.984,687.592,716.384,46.06,-3.99,-130.48
1175.104,744.2,691.008,42.49,-0.91,-119.91
1245.376,548.024,801.784,38.57,3.08,-108.15
1234.152,422.12,953.064,32.06,6.51,-99.19
1341.512,247.904,957.456,22.4,8.96,-93.31
1413.248,129.808,1007.72,10.22,8.75,-87.22
1418.616,-56.608,1037.0,-4.9,5.11,-76.51
1309.792,300.608,1016.016,-20.44,-0.42,-57.54
1328.824,214.72,980.392,-32.55,-7.28,-30.38
1140.456,160.552,938.424,-43.61,-14.7,1.12
1055.544,180.56,870.592,-53.48,-21.07,31.15
909.632,190.32,793.976,-62.02,-26.74,55.37
829.112,161.04,783.24,-69.51,-30.87,73.36
719.8,146.888,756.4,-76.02,-33.6,85.47
685.64,185.44,739.808,-81.27,-34.72,93.66
701.256,219.6,724.68,-84.84,-35.0,99.54
684.664,227.896,728.096,-86.73,-35.35,102.41
632.448,231.8,704.672,-87.29,-35.49,101.29
511.424,263.032,650.504,-86.59,-35.28,96.95
404.064,303.048,609.512,-84.49,-34.44,89.67
343.552,350.384,549.0,-81.2,-33.25,80.22
254.736,390.888,497.272,-77.14,-31.71,70.35
220.576,412.848,442.616,-72.38,-29.33,62.58
194.712,394.792,393.328,-66.99,-26.18,58.8
167.384,369.416,382.104,-61.25,-22.05,58.52
153.232,350.872,351.36,-55.37,-17.08,60.41
153.72,339.648,321.104,-49.28,-11.41,63.35
139.568,281.088,299.632,-43.19,-5.18,66.36
136.152,238.632,288.896,-37.45,1.54,68.81
138.592,200.08,268.888,-32.27,8.26,69.3
164.456,123.952,261.568,-27.72,14.28,65.24
226.432,72.712,278.648,-24.15,18.9,56.56
308.904,45.872,270.84,-21.35,21.84,46.48
476.288,47.824,369.904,-18.9,22.96,37.59
588.04,117.608,444.08,-16.52,21.63,30.8
758.84,134.688,472.384,-13.65,18.62,28.63
932.08,159.088,579.744,-10.36,13.86,32.55
1037.0,232.288,653.432,-6.3,7.7,42.63
1152.168,288.896,681.248,-1.26,0.84,56.35
1215.608,270.352,731.024,4.41,-6.86,68.95
1220.976,225.944,714.432,9.66,-14.7,77.07
1183.888,213.744,753.472,14.14,-21.56,82.46
1168.272,101.992,734.44,17.85,-26.67,85.96
1093.608,52.216,763.232,20.72,-29.96,86.94
1065.792,-29.768,820.328,23.31,-31.08,85.75
1118.496,-51.24,874.496,26.04,-30.87,84.21
1263.92,-34.648,918.904,29.68,-30.31,84.35
1356.64,-124.44,929.64,34.09,-30.66,86.03
1308.328,-158.112,919.392,38.22,-31.15,89.18
1246.352,-75.64,933.056,42.84,-30.03,96.39
1039.928,111.752,961.36,50.05,-25.69,108.5
1352.248,125.416,860.832,61.18,-17.99,124.6
1553.304,274.256,854.976,74.97,-11.83,143.22
1605.032,207.888,988.688,90.65,-7.98,160.09
1363.96,229.36,1122.888,105.49,-5.04,170.03
1238.544,295.24,1197.552,120.19,-0.91,175.56
1145.824,185.44,1102.88,135.38,3.92,174.65
1024.8,29.768,1095.072,149.94,9.59,161.28
1040.416,86.376,973.072,162.75,16.17,135.45
1009.184,94.184,950.624,175.14,22.96,103.32
1036.024,-11.712,1031.632,186.27,30.1,67.34
1095.56,-122.976,1101.416,195.23,37.38,31.57
1179.008,-273.28,1131.672,201.81,45.01,2.17
1214.144,-287.92,1075.552,205.73,52.85,-19.46
1223.904,-283.04,1025.288,207.62,61.04,-31.78
1209.264,-281.088,991.616,208.04,69.16,-35.21
1186.328,-320.128,936.96,206.92,76.79,-32.97
1135.088,-336.72,854.488,204.4,83.58,-29.82
1028.216,-393.328,790.072,200.76,89.81,-30.8
984.784,-446.52,786.656,195.79,95.69,-35.07
973.072,-538.752,736.88,189.35,100.45,-35.49
966.728,-617.32,683.688,181.79,103.25,-26.53
924.272,-719.312,627.568,173.6,103.25,-6.51
882.792,-727.608,547.048,165.34,100.03,19.11
785.192,-704.184,451.888,157.78,93.94,42.7
653.92,-694.912,333.792,150.99,86.24,56.49
563.64,-656.36,284.504,144.83,77.98,59.78
509.472,-608.048,221.552,138.95,69.58,56.28
523.624,-577.304,173.24,133.42,61.32,51.8
655.872,-542.168,149.328,128.59,52.92,56.35
852.536,-510.448,135.176,124.74,42.91,70.35
986.736,-450.912,147.864,121.31,30.45,84.07
1040.904,-356.24,147.376,118.3,15.96,87.78
1034.56,-265.96,121.512,115.85,0.77,77.21
1050.664,-217.16,101.016,113.96,-13.65,60.13
1053.592,-220.576,92.232,112.35,-26.95,48.37
1001.864,-230.336,114.68,110.25,-38.78,45.22
921.344,-254.248,67.832,107.17,-48.65,47.25
909.144,-309.88,65.392,102.97,-56.21,51.31
912.072,-346.968,28.792,97.51,-61.95,56.84
957.944,-323.056,25.376,91.35,-66.43,65.45
969.656,-312.32,35.624,84.91,-70.07,76.3
971.12,-222.528,61.976,78.47,-73.01,87.5
948.672,-123.464,54.656,72.8,-75.11,98.49
924.76,36.112,21.472,68.81,-75.88,107.24
887.672,172.264,-48.312,67.41,-75.04,110.32
924.76,313.784,-81.496,68.95,-72.94,105.42
1009.672,337.696,-91.256,73.01,-70.91,92.82
1114.104,338.672,-91.744,78.19,-69.93,70.91
1257.088,306.464,-95.16,83.79,-70.21,42.07
1439.6,314.76,-86.376,89.25,-71.82,12.95
1586.976,256.688,-141.52,94.64,-74.55,-8.75
1704.584,156.16,-178.12,98.49,-78.33,-20.51
1835.368,108.824,-184.952,100.24,-83.3,-14.98
1873.92,70.76,-231.312,99.26,-90.02,3.78
1892.464,100.528,-258.152,95.55,-98.35,17.92
1959.808,157.136,-319.152,89.95,-107.8,14.21
2044.72,176.168,-402.112,83.3,-118.02,-10.08
2251.632,253.272,-453.84,76.44,-128.38,-42.42
2379.488,216.672,-593.408,69.93,-139.37,-68.25
2506.856,195.2,-656.848,62.86,-150.29,-81.48
2557.12,29.28,-652.944,54.46,-161.14,-75.81
2636.664,-43.92,-702.232,42.77,-171.29,-52.5
2557.12,-180.072,-826.184,27.72,-180.81,-21.42
2416.088,-373.808,-944.768,8.33,-188.51,-0.14
2405.84,-754.448,-1006.744,-16.52,-194.46,8.12
2508.32,-919.88,-1067.256,-47.39,-198.8,19.46
2440.0,-1113.616,-1256.112,-82.39,-200.9,42.35
2355.576,-1102.392,-1397.632,-120.96,-198.31,68.53
2087.664,-1402.512,-1572.824,-162.75,-190.68,88.48
1829.512,-1565.504,-1484.008,-210.35,-177.45,96.04
1579.168,-1801.696,-1566.48,-263.41,-159.81,99.19
1480.592,-2088.64,-1628.944,-322.7,-139.72,92.05
1512.312,-2207.712,-1865.624,-387.87,-120.19,79.38
1482.056,-2215.52,-2153.544,-457.24,-103.04,68.74
1543.056,-2165.744,-2630.808,-529.34,-88.41,63.21
1707.024,-2318.976,-2880.176,-604.59,-77.77,63.63
2291.16,-2861.632,-2809.904,-685.86,-74.13,65.24
2979.728,-3792.248,-2141.344,-777.28,-82.11,64.68
3472.608,-4544.744,-1429.352,-879.34,-98.56,82.18
3002.176,-4813.144,-402.112,-983.99,-107.38,141.54
1107.76,-4215.832,43.92,-1077.86,-85.68,197.82
-766.16,-3077.816,23.912,-1142.33,-26.88,181.3
881.328,920.856,-957.456,-948.29,40.32,-23.94
2362.408,874.496,-1571.36,-344.54,-24.78,-254.8
2748.416,-2711.328,-827.16,-105.28,-27.44,-177.8
1326.872,-5709.6,67.832,-128.31,-50.68,-184.87
2787.456,-5464.624,-734.44,-281.4,-78.82,-43.12
452.864,-5969.704,149.816,-563.78,-71.4,72.03
162.992,-5777.92,249.368,-819.56,-27.23,120.47
-728.584,-4279.272,196.664,-896.91,34.44,142.94
-1187.304,-3411.608,536.8,-883.4,112.49,192.22
-1363.472,-2667.408,663.192,-854.91,205.45,276.36
-1016.016,-1431.792,782.264,-800.8,308.21,364.14
-703.696,-169.824,509.96,-715.19,405.72,402.01
-446.032,258.64,498.736,-603.96,485.8,375.83
-478.24,206.912,156.648,-484.75,543.76,307.3
-204.96,-259.128,58.072,-371.77,583.94,255.01
459.208,-973.072,-117.12,-270.9,609.28,267.4
1075.552,-1423.496,-167.872,-181.09,617.82,350.49
1037.0,-1521.096,-138.592,-96.32,609.63,458.22
622.688,-1288.808,-93.208,-17.43,587.02,523.95
-14.64,-768.6,-52.704,51.17,553.35,512.96
-312.32,-419.192,49.776,104.3,511.63,414.89
-318.176,-152.744,16.592,137.83,464.1,255.36
-334.768,-7.32,104.432,152.88,414.75,84.77
-390.4,16.104,5.368,154.21,367.85,-62.93
-573.888,-16.104,-22.448,147.49,324.94,-175.84
-650.016,-101.504,106.872,137.2,285.6,-245.56
-636.84,-291.824,77.104,126.7,247.17,-265.3
-653.92,-515.816,3.904,117.74,208.18,-245.91
-816.424,-689.544,-12.2,111.23,170.1,-207.55
-1078.48,-721.264,-17.568,107.45,135.73,-172.83
-1228.296,-704.672,-62.952,106.54,107.17,-155.47
-1182.912,-685.152,-252.296,108.43,83.44,-152.6
-1172.176,-550.464,-225.456,112.7,62.86,-152.04
-1136.064,-382.104,-127.856,120.47,44.45,-142.52
-1091.656,-266.936,-153.72,131.25,27.51,-124.53
-1093.608,-214.72,-193.248,143.71,12.18,-107.66
-1119.96,-249.368,-143.96,156.38,-1.05,-97.79
-1094.584,-274.256,-151.768,167.72,-12.32,-92.82
-977.464,-219.112,-133.712,177.8,-23.03,-82.67
-849.12,-302.072,-122.976,186.27,-35.7,-67.34
-765.672,-347.944,-84.424,191.38,-51.45,-60.83
-684.176,-447.496,-68.32,193.34,-69.37,-67.9
-645.136,-526.552,-9.272,192.5,-88.06,-86.59
-584.136,-604.144,56.608,189.91,-106.12,-107.8
-608.048,-653.92,103.944,186.76,-122.85,-121.45
-594.384,-739.32,192.76,183.19,-137.55,-120.96
-507.52,-856.44,210.816,178.78,-151.48,-108.08
-337.696,-897.92,180.56,173.11,-165.9,-85.61
-138.592,-901.824,133.712,166.74,-181.65,-54.32
5.856,-876.936,115.656,159.81,-198.73,-19.81
61.488,-891.576,132.248,152.18,-216.16,8.61
62.464,-892.552,92.72,143.92,-232.26,23.17
49.776,-868.152,90.768,136.36,-245.28,25.9
170.8,-878.888,65.392,130.13,-255.15,23.45
335.256,-931.104,122.488,124.74,-263.2,25.13
571.448,-962.824,225.944,119.56,-271.04,39.76
729.56,-968.68,320.128,113.68,-280.07,69.51
785.68,-924.272,388.936,106.75,-289.66,106.61
843.264,-884.256,406.992,99.12,-299.39,140.21
976.488,-933.056,449.448,90.93,-309.19,166.53
1141.92,-969.656,559.736,81.69,-319.34,187.95
1343.464,-953.552,657.824,71.96,-329.98,203.91
1540.616,-856.928,756.888,62.93,-340.41,219.73
1663.104,-652.944,768.6,55.93,-349.79,237.65
1737.768,-589.992,679.296,51.73,-357.42,253.05
1871.48,-761.768,613.904,49.14,-363.16,263.48
2086.2,-895.48,671.488,46.48,-367.85,268.87
2343.864,-745.664,656.36,45.43,-371.49,275.52
2482.456,-551.928,627.08,49.14,-373.73,288.47
2469.28,-304.024,546.56,57.26,-374.01,305.9
2255.048,-107.848,454.816,70.21,-371.07,320.95
2141.344,-75.152,154.696,86.66,-363.93,322.07
2262.368,-129.32,-220.576,106.19,-354.48,302.05
2385.832,-196.176,-394.792,128.73,-345.45,259.21
2586.4,-265.472,-458.72,155.05,-337.19,205.45
2705.472,-277.672,-373.808,184.45,-329.7,161.14
2548.824,-299.632,-284.504,215.53,-321.72,138.32
2277.008,-273.28,-225.944,245.98,-311.01,132.3
2144.76,-223.016,-312.808,275.1,-296.87,135.17
2216.008,-194.712,-548.512,302.33,-281.54,134.68
2155.008,-199.592,-593.896,327.67,-266.7,117.74
2036.424,-353.8,-562.664,350.84,-251.02,79.73
1853.912,-540.216,-469.456,370.79,-232.96,26.95
1629.92,-711.504,-355.752,386.89,-210.77,-28.35
1467.904,-831.552,-301.096,399.07,-183.89,-74.06
1449.848,-801.296,-238.144,407.47,-153.72,-101.15
1566.48,-774.456,-287.432,412.65,-123.48,-106.96
1685.552,-786.168,-400.648,414.19,-96.46,-98.84
1655.296,-824.72,-386.496,411.53,-73.85,-85.89
1524.512,-878.888,-356.24,404.6,-54.6,-76.86
1372.256,-926.224,-334.28,393.68,-37.38,-78.61
1171.2,-988.688,-300.608,379.05,-20.72,-93.66
1016.992,-1006.744,-259.616,361.27,-3.57,-120.54
907.68,-1025.288,-201.056,341.25,14.07,-152.04
867.664,-1058.96,-148.352,319.27,31.5,-178.71
918.904,-1045.784,-147.376,295.82,47.18,-192.22
978.928,-1027.728,-185.44,272.02,59.78,-190.05
1009.184,-1023.336,-183.976,248.36,68.67,-175.21
1049.2,-984.296,-160.064,225.26,73.85,-151.55
1059.448,-965.264,-139.08,203.0,75.39,-124.39
1008.696,-902.312,-106.872,181.72,73.85,-99.89
943.304,-814.472,-100.528,161.91,70.42,-81.48
883.768,-710.528,-84.424,143.57,65.73,-69.79
862.296,-629.032,-109.312,125.72,59.92,-59.99
700.28,-355.752,22.448,107.24,53.13,-56.35
753.472,-88.328,29.28,87.57,47.25,-77.84
784.704,-163.968,-68.32,66.64,40.53,-119.63
788.608,-231.8,-70.272,47.6,33.46,-143.57
779.336,-234.24,-76.616,33.67,27.16,-137.83
733.952,-232.776,-56.12,24.43,22.05,-116.69
786.168,-242.536,-102.48,17.99,18.69,-93.87
658.312,-120.048,-115.656,14.0,16.8,-72.17
587.064,-169.336,-48.8,12.53,16.59,-53.97
584.136,-215.696,-55.632,11.76,16.38,-41.44
615.368,-169.336,-12.2,11.34,15.4,-32.06
583.16,-85.4,30.256,11.13,14.0,-23.31
561.688,-155.184,9.272,11.06,13.44,-17.29
585.112,-162.992,40.504,9.73,13.09,-15.61
637.816,-73.2,83.448,7.49,12.25,-13.86
702.232,-4.88,137.616,4.97,10.64,-9.24
755.424,-16.592,124.44,2.17,8.05,-2.45
790.56,-43.92,163.48,-1.19,4.83,5.95
860.832,-51.728,254.248,-5.11,0.84,16.45
971.12,-53.68,326.472,-9.1,-4.48,28.91
1041.392,-23.424,413.824,-12.88,-11.27,42.84
1078.48,-22.936,504.104,-15.96,-18.76,56.0
1113.616,-29.28,511.912,-18.55,-26.32,68.25
1086.776,33.184,548.024,-20.72,-33.25,80.57
1043.832,96.624,562.664,-22.26,-38.92,92.68
973.072,116.144,520.696,-22.75,-42.98,102.13
886.208,113.704,510.448,-22.68,-45.08,107.8
822.28,139.08,541.68,-22.19,-45.08,111.51
831.064,187.88,539.24,-21.0,-43.4,115.78
780.312,195.2,495.32,-18.62,-40.88,119.84
719.312,201.056,520.208,-15.4,-37.17,122.08
699.792,250.344,568.52,-10.99,-32.34,123.13
675.88,275.232,628.544,-5.04,-26.95,122.36
640.744,254.248,668.072,2.17,-20.86,117.6
641.72,217.648,707.6,10.36,-14.42,108.43
707.112,132.736,709.064,18.97,-8.26,97.09
839.36,-2.928,751.52,27.23,-3.43,88.34
996.496,-97.6,916.952,34.51,-0.63,88.2
1176.568,-209.84,1060.912,40.95,-0.35,99.05
1339.072,-264.984,1117.52,46.62,-2.59,115.43
1406.416,-275.72,1122.4,52.29,-6.86,128.59
1477.664,-269.864,1074.088,58.45,-12.04,131.6
1508.896,-167.384,1045.296,65.52,-17.5,124.18
1453.264,-99.064,977.464,74.55,-22.12,107.1
1354.2,-81.008,909.632,85.33,-24.85,80.99
1280.512,-88.328,860.832,97.3,-25.2,51.17
1169.248,-145.912,844.728,109.9,-23.31,22.05
1079.944,-220.576,783.24,122.36,-19.04,-5.95
997.96,-316.712,710.04,133.63,-12.67,-32.48
950.624,-357.704,703.696,143.08,-4.55,-53.83
929.64,-416.264,665.632,150.29,4.27,-66.43
889.136,-435.296,637.328,154.77,12.88,-71.19
815.936,-456.28,596.336,156.8,20.86,-71.33
745.664,-452.864,553.88,156.66,28.21,-71.47
680.272,-437.248,517.28,154.77,34.79,-73.36
627.08,-438.224,491.904,151.34,40.67,-78.12
602.68,-506.056,467.992,146.79,45.92,-83.58
617.32,-574.864,478.24,140.7,50.4,-84.28
636.84,-620.736,485.072,133.77,53.55,-75.81
657.336,-688.08,444.08,126.21,55.23,-59.43
714.92,-689.544,408.944,118.23,55.16,-37.03
788.12,-619.76,336.72,110.67,52.85,-9.45
823.744,-520.696,244.0,104.51,48.44,17.43
818.376,-469.944,171.776,100.17,42.49,34.09
835.456,-518.744,172.752,96.88,35.7,34.72
949.648,-586.088,190.32,93.66,28.35,24.92
1068.232,-642.696,210.328,90.65,20.3,15.54
1165.832,-676.368,155.184,88.27,12.04,13.44
1243.912,-618.784,142.008,87.01,4.06,24.01
1254.648,-528.504,67.832,87.64,-3.36,47.6
1151.68,-431.88,40.504,90.16,-10.08,72.03
1052.616,-363.072,-9.272,94.08,-15.47,82.95
992.592,-275.72,-7.32,99.19,-19.25,80.01
1007.72,-251.808,-41.968,105.49,-22.19,70.49
1086.776,-186.416,-45.872,112.49,-25.27,62.37
1129.72,-140.056,-63.44,119.98,-28.63,61.95
1119.472,-73.2,-72.712,127.54,-31.92,64.75
1126.304,-4.88,-66.856,134.75,-35.21,66.85
1104.344,33.672,-73.688,141.82,-38.78,66.01
1042.368,86.864,-77.592,148.33,-42.49,59.29
1041.88,118.096,-70.76,154.49,-45.85,49.42
1098.976,133.224,-67.832,160.09,-49.42,42.84
1158.512,138.592,-82.96,164.92,-53.69,42.56
1217.072,226.92,-114.192,168.91,-58.73,47.32
1239.032,311.344,-149.816,172.76,-64.33,53.83
1215.608,349.408,-183.976,176.12,-70.07,54.25
1195.6,398.696,-183.0,178.64,-75.32,46.76
1170.712,415.776,-209.84,180.04,-79.8,34.93
1166.808,379.176,-225.456,179.97,-83.51,20.44
1228.784,370.88,-263.52,177.87,-86.8,6.37
1331.264,350.384,-338.672,173.88,-90.16,-0.63
1419.592,315.248,-406.016,167.93,-94.01,1.68
1477.664,166.408,-514.352,159.32,-98.35,6.86
1552.816,104.432,-638.304,147.35,-102.9,12.53
1640.656,49.288,-826.184,132.93,-107.59,22.26
1794.864,62.952,-1024.312,116.55,-112.56,36.12
1865.624,-27.328,-1311.744,98.91,-118.37,49.77
2056.432,-1.464,-1539.64,79.45,-124.53,62.16
2198.928,-152.256,-1872.944,59.15,-131.81,75.6
2316.048,-227.896,-2108.648,36.82,-139.58,84.63
2455.616,-692.96,-2262.368,11.69,-148.12,85.89
2572.736,-1174.616,-2244.8,-19.88,-157.92,74.55
2641.544,-1510.848,-2334.104,-56.42,-167.93,61.6
2666.432,-1756.8,-2423.896,-94.71,-176.4,52.01
2721.088,-1861.232,-2538.088,-132.09,-182.49,43.26
2797.216,-1993.968,-2612.752,-168.07,-187.18,27.23
2811.368,-2246.752,-2632.76,-204.96,-191.87,1.54
2854.8,-2655.208,-2600.552,-246.75,-196.63,-11.97
3018.768,-3041.216,-2764.032,-298.69,-199.29,29.89
2862.608,-3952.312,-2888.96,-365.61,-196.0,133.0
2549.312,-4656.984,-2791.848,-454.58,-181.79,241.15
2602.504,-4291.472,-2306.288,-559.3,-154.84,334.18
2283.84,-5087.888,-2290.672,-670.53,-114.94,410.13
2221.376,-5437.784,-1694.824,-791.77,-59.92,439.88
2109.624,-5938.472,-1171.688,-913.57,7.07,433.72
1653.832,-6363.52,-397.72,-1030.61,83.86,392.35
843.752,-6676.816,141.032,-1136.45,168.07,324.17
-108.824,-6649.488,786.168,-1226.82,257.25,245.77
-662.704,-6403.048,1251.232,-1295.28,349.51,187.11
2957.28,-3802.496,218.624,-1189.79,415.52,399.91
-2217.96,-120.536,-889.624,-536.48,550.48,1725.71
-3558.496,2621.536,418.704,-252.42,675.78,1178.8
-2974.848,52.216,4032.344,-354.2,847.0,137.55
-3080.256,-2228.696,1853.912,-461.37,831.95,-676.55
-1217.56,-3333.04,-365.024,-578.41,774.97,-1038.1
813.496,-3479.928,-1083.848,-708.89,677.39,-1016.96
1878.8,-2685.464,-1772.416,-761.74,579.32,-703.92
767.624,-1601.616,-2187.216,-736.68,527.17,-303.45
-1610.4,-1773.392,-1506.456,-671.23,535.43,-59.92
-1378.6,-637.816,-731.024,-601.72,579.67,-13.23
390.888,43.92,-425.048,-518.7,624.47,35.84
1288.32,146.4,-406.992,-414.4,657.37,147.49
1406.416,42.944,-342.576,-293.3,682.22,267.19
1006.256,-352.824,-436.76,-166.53,699.37,343.91
768.112,-616.832,-449.936,-48.58,707.14,352.66
749.568,-754.448,-596.824,50.54,702.87,302.89
959.408,-646.6,-532.408,125.02,685.79,220.71
999.912,-339.648,-744.2,177.17,657.16,137.41
1021.872,-40.992,-49.288,211.12,619.85,68.18
953.064,-371.368,-128.344,230.09,574.42,3.36
788.608,-765.672,-29.28,230.65,525.42,-70.35
708.088,-1079.944,-197.64,216.16,476.49,-136.01
503.128,-1175.592,-130.784,192.99,429.03,-169.26
435.296,-1332.728,-318.664,168.07,381.5,-159.18
285.968,-1154.12,-520.208,145.11,331.38,-110.6
172.752,-759.328,-784.216,129.15,278.18,-40.04
-189.344,-538.264,-877.424,119.98,222.67,16.03
-590.48,-342.088,-747.128,113.47,168.7,28.07
-798.856,-184.952,-718.824,107.87,119.21,4.55
-1004.304,24.888,-643.672,103.95,75.18,-27.44
-1222.44,46.848,-598.288,103.04,37.24,-48.93
-1433.744,118.584,-585.6,104.37,5.67,-56.28
-1535.736,153.232,-557.296,108.22,-20.37,-53.41
-1551.84,197.152,-425.536,113.82,-42.42,-47.32
-1465.464,131.76,-291.824,120.26,-62.09,-43.12
-1357.616,38.552,-124.44,126.14,-80.15,-43.4
-1259.04,-17.08,30.744,130.83,-96.81,-48.72
-1200.968,-65.392,92.232,135.17,-111.58,-57.61
-1220.976,-66.856,115.656,139.58,-123.62,-68.46
-1273.68,-127.856,139.08,144.62,-132.23,-81.34
-1260.992,-194.712,157.624,150.08,-137.34,-94.85
-1238.056,-242.048,120.536,155.82,-139.37,-103.25
-1264.408,-210.328,138.104,162.12,-138.6,-103.53
-1277.096,-216.184,132.736,168.56,-135.38,-96.46
-1208.776,-261.08,135.664,174.3,-130.9,-85.05
-1067.256,-332.816,163.48,178.43,-126.91,-72.8
-879.376,-426.512,219.6,180.11,-124.88,-59.85
-681.736,-512.888,223.016,179.27,-125.44,-45.01
-512.4,-551.928,232.288,176.33,-128.66,-29.68
-380.64,-589.016,234.728,171.78,-134.26,-14.42
-256.2,-629.52,261.568,166.18,-141.61,-1.89
-139.08,-560.712,302.56,160.02,-150.43,10.71
-55.144,-433.344,310.368,154.56,-160.16,26.67
-25.864,-333.792,332.328,150.22,-170.17,45.99
-71.736,-247.904,335.256,146.65,-179.76,65.17
-172.264,-203.496,316.712,143.43,-188.02,80.71
-243.024,-203.984,301.096,140.49,-194.46,90.65
-275.232,-220.576,268.888,137.41,-199.22,94.29
-235.216,-250.344,198.128,134.4,-202.72,94.78
-167.384,-284.992,163.48,131.74,-205.24,96.95
-86.376,-277.184,106.384,129.22,-207.27,103.74
-14.64,-225.456,87.352,127.4,-208.88,117.25
46.36,-166.896,79.544,126.14,-210.35,135.45
81.008,-132.736,112.24,125.16,-211.75,157.15
89.304,-103.944,172.264,123.76,-213.22,177.94
104.92,-115.168,223.016,121.8,-214.48,196.21
136.64,-107.848,272.792,119.07,-215.46,210.21
221.064,-77.104,304.512,115.92,-216.3,219.38
326.96,-70.272,357.216,112.98,-217.35,226.38
429.44,-91.256,387.96,110.04,-218.82,231.35
513.864,-61.488,429.928,107.17,-220.43,236.04
593.408,-42.456,444.568,104.93,-221.9,240.73
673.928,-39.528,437.736,103.6,-222.74,245.14
759.328,-4.88,412.36,103.46,-222.95,250.32
832.528,-36.112,369.416,104.51,-222.25,256.34
938.424,-70.272,318.664,106.19,-220.57,263.76
1103.368,-34.648,250.344,108.5,-218.26,274.19
1231.712,14.152,234.24,111.86,-215.88,286.09
1361.032,53.68,264.496,116.41,-213.5,294.49
1548.424,-67.344,285.48,121.94,-211.68,295.82
1703.608,-260.104,361.608,126.35,-210.91,292.39
1809.016,-429.44,357.704,129.01,-210.42,288.75
1884.168,-564.128,282.064,129.92,-209.16,286.72
2023.736,-539.24,145.424,130.13,-206.64,283.36
2145.736,-516.304,60.512,131.74,-203.56,276.92
2348.256,-661.728,60.024,134.4,-200.55,268.8
2503.44,-820.328,72.712,136.36,-198.52,263.2
2444.88,-922.32,61.0,137.06,-196.56,261.52
2399.008,-931.592,-77.592,136.99,-192.85,262.22
2385.832,-904.264,-310.856,137.48,-187.53,263.83
2535.648,-882.304,-382.104,138.67,-182.07,264.04
2700.104,-779.336,-552.416,140.98,-178.78,263.48
2576.64,-683.2,-611.464,144.97,-177.38,260.4
2302.384,-607.56,-619.272,150.5,-175.49,249.27
1972.496,-515.328,-629.52,157.85,-171.5,228.41
1717.272,-464.088,-700.28,167.02,-164.64,199.43
1667.984,-326.96,-742.736,177.8,-156.03,166.11
1690.432,-161.04,-826.672,190.47,-147.56,133.63
1611.864,-76.616,-803.736,204.75,-139.93,104.16
1473.272,-68.32,-770.064,219.31,-132.23,74.83
1304.424,-67.344,-775.432,232.82,-123.76,42.21
1141.432,-95.648,-710.04,245.07,-113.82,7.21
1057.008,-132.736,-713.456,255.92,-102.34,-27.02
995.52,-109.8,-674.416,265.02,-89.74,-57.26
965.264,-121.024,-692.96,272.86,-76.16,-82.6
964.776,-217.16,-661.728,278.67,-62.37,-104.58
1014.064,-402.6,-647.088,281.61,-48.79,-123.06
997.96,-536.312,-552.904,280.42,-36.19,-133.7
1074.576,-483.608,-425.536,276.64,-24.64,-136.36
1048.712,-471.896,-376.736,272.02,-14.91,-137.9
1104.832,-445.056,-299.632,266.35,-6.3,-140.77
1163.392,-5.856,-116.632,258.37,1.61,-151.06
1200.968,-277.184,-184.952,248.08,9.73,-179.27
1196.088,-414.8,-163.968,232.33,17.78,-207.13
1253.184,-470.432,-68.32,216.09,25.62,-221.97
1255.624,-565.592,-73.2,200.2,31.64,-224.28
1314.184,-557.296,-61.0,183.89,35.77,-216.02
1212.68,-424.072,21.472,168.0,37.24,-201.67
1293.2,-437.248,30.256,153.37,37.1,-181.93
1188.28,-588.04,121.512,139.51,35.0,-154.84
1067.744,-576.328,79.544,126.0,32.55,-119.56
887.672,-539.24,64.904,114.03,29.82,-78.61
913.048,-488.976,40.504,103.53,26.6,-36.33
888.648,-409.92,37.088,94.08,21.49,2.52
881.816,-320.128,24.4,84.91,16.52,31.92
827.648,-302.56,27.328,75.88,12.6,51.03
892.064,-382.104,96.624,67.2,9.73,65.31
955.016,-351.36,153.232,58.73,6.72,76.86
971.608,-339.16,234.24,51.1,3.5,83.23
993.568,-345.016,283.528,43.96,0.35,83.79
942.328,-327.936,319.152,37.24,-2.38,80.64
1091.656,-386.984,321.592,30.66,-4.55,77.77
1237.08,-323.544,423.096,23.45,-7.77,74.06
1186.816,-193.736,458.232,16.52,-12.39,65.03
1180.96,-183.488,439.688,10.57,-16.59,49.0
1198.04,-218.136,450.424,5.18,-20.23,28.28
1281.976,-237.656,457.256,0.56,-23.52,6.86
1339.56,-265.472,488.488,-3.36,-26.74,-10.64
1319.552,-278.648,445.544,-6.58,-29.54,-22.75
1223.904,-348.432,331.84,-9.45,-30.73,-29.26
631.96,-339.648,133.224,-11.97,-27.79,-30.03
-347.944,4.88,70.76,-12.18,-13.37,-24.5
-39.04,-111.264,244.488,-7.91,13.09,-19.18
797.392,-208.864,-83.448,-3.29,37.17,-16.1
1240.984,28.792,-65.392,1.61,51.73,-0.42
1084.336,64.904,249.368,7.63,60.2,24.08
779.336,72.712,481.168,13.58,68.11,45.57
820.328,83.936,499.224,21.0,77.21,64.68
942.816,72.224,448.472,30.87,84.56,85.54
962.824,-5.368,543.144,41.86,88.62,103.53
998.448,-30.256,713.456,52.08,89.39,111.51
1072.624,-16.104,774.456,61.32,86.45,108.64
1093.12,-40.992,857.416,69.79,80.43,99.33
1084.336,-108.824,880.84,77.42,72.94,85.54
1009.672,-141.52,979.416,83.72,65.24,67.9
1044.32,-388.936,1103.856,88.83,58.31,47.81
1131.672,-550.464,1099.952,90.65,51.66,26.6
1168.272,-578.28,963.312,90.79,45.64,10.29
1209.752,-585.112,865.712,90.86,41.3,3.5
1281.0,-496.296,836.432,91.91,38.57,9.87
1312.232,-425.536,805.2,94.99,36.68,28.14
1222.44,-380.64,752.008,99.89,35.28,45.15
1090.68,-385.52,694.912,106.19,34.58,48.23
981.368,-423.096,635.864,113.54,34.79,34.93
918.904,-456.28,549.976,121.52,35.98,12.6
887.672,-511.424,514.352,129.92,38.08,-7.28
908.168,-599.752,443.104,137.9,40.46,-16.38
887.184,-699.792,330.864,145.11,41.79,-14.07
812.032,-753.96,253.76,151.55,41.3,-2.94
633.912,-730.536,91.744,158.06,38.78,9.94
580.232,-752.008,126.392,164.85,34.86,14.77
404.552,-795.928,16.592,171.43,29.12,12.53
435.296,-811.056,69.784,176.4,22.82,13.72
581.208,-876.936,145.912,179.97,14.56,30.8
656.36,-878.888,156.16,181.37,3.43,58.66
723.704,-810.568,128.344,181.23,-10.08,84.35
666.608,-690.032,144.448,180.04,-25.06,97.93
680.76,-604.144,136.152,178.22,-40.04,93.94
749.08,-535.824,105.896,176.05,-54.53,77.63
895.968,-459.208,98.576,173.95,-68.6,62.72
1030.168,-422.12,82.96,172.2,-82.32,60.55
1131.184,-341.112,64.416,170.73,-95.55,70.56
1125.816,-285.48,25.376,169.26,-108.08,81.83
1141.432,-196.664,-6.344,167.79,-119.14,83.44
1128.256,-93.208,-52.704,166.32,-128.45,76.65
1138.992,11.224,-86.376,165.34,-135.52,66.71
1129.232,91.744,-129.32,164.92,-140.42,55.16
1122.888,63.928,-189.832,164.85,-142.94,39.2
1275.144,70.76,-155.184,164.15,-143.5,24.99
1495.232,0.488,-203.984,162.61,-144.06,19.32
1651.88,71.248,-258.64,159.88,-145.53,17.5
1646.024,182.024,-338.184,157.08,-146.93,10.5
1598.2,203.984,-459.208,154.98,-146.65,-10.92
1611.376,220.576,-501.176,152.81,-143.99,-37.73
1677.744,121.512,-581.696,150.01,-139.79,-50.61
1633.824,20.008,-629.032,144.55,-135.17,-46.69
1630.896,-25.376,-708.576,135.87,-130.55,-31.71
1542.08,-55.144,-787.632,124.46,-126.49,-16.1
1419.104,-104.92,-905.24,110.88,-122.15,-11.97
1405.44,-174.216,-1008.208,95.76,-117.25,-18.55
1490.352,-299.632,-1292.224,79.66,-112.63,-27.09
1589.416,-408.456,-1506.456,62.65,-109.41,-29.54
1694.336,-527.528,-1785.592,44.52,-108.01,-20.93
1734.84,-676.856,-1994.456,24.36,-108.85,-7.42
1787.056,-867.176,-2168.184,1.12,-111.65,6.44
1819.264,-1087.752,-2289.696,-26.32,-116.13,19.81
1742.16,-1413.736,-2328.248,-59.08,-122.01,21.84
1800.72,-1683.112,-2394.128,-97.58,-129.15,4.55
2105.232,-1995.432,-2540.04,-140.42,-138.95,-11.41
2456.104,-2493.68,-2738.656,-187.6,-152.67,-1.89
3031.944,-2944.104,-3095.384,-240.87,-168.35,56.35
3753.696,-3404.776,-3768.336,-302.75,-183.26,178.57
4151.416,-4487.16,-3755.648,-380.87,-194.39,322.7
3746.864,-5393.864,-3138.328,-485.24,-197.75,400.4
3023.648,-6238.104,-2723.04,-612.29,-189.35,383.11
2146.712,-6842.736,-2319.952,-753.48,-167.16,315.14
1365.912,-7554.24,-1997.384,-898.03,-128.73,254.59
1137.528,-8045.656,-1236.104,-1039.01,-72.38,229.95
1057.008,-8413.12,-420.656,-1167.32,2.38,248.57
740.296,-8525.848,524.112,-1276.87,97.3,280.35
603.656,-8727.88,1351.76,-1361.43,210.98,314.3
2195.512,-2929.464,1485.472,-1345.82,313.46,357.98
-1026.752,-5357.752,-1486.936,-740.74,242.48,605.5
-696.864,-2425.36,-113.216,-560.07,284.27,463.47
-788.608,-5252.832,4100.664,-690.2,452.9,265.65
-160.064,-6716.832,3419.416,-783.72,497.49,105.7
-506.544,-4209.488,1748.992,-831.95,519.33,2.59
-846.192,-2995.832,263.032,-840.42,530.81,-107.17
-1036.024,-2537.112,-1038.952,-818.93,527.1,-221.2
-1269.288,-2537.112,-1842.2,-777.98,514.36,-291.62
-1037.0,-2691.808,-1684.576,-730.03,503.16,-272.16
-918.416,-2815.272,-1400.072,-682.43,503.09,-156.45
-1565.504,-2391.2,-374.296,-635.74,521.01,-20.65
-1406.904,-1048.224,-211.792,-581.35,555.8,67.83
-636.84,-519.232,229.36,-508.27,593.81,146.93
265.96,-806.176,278.648,-420.98,623.98,237.16
512.4,-1175.104,317.2,-328.86,642.74,332.78
414.8,-1418.616,304.512,-234.43,653.87,429.17
511.424,-1345.904,87.84,-138.11,657.65,518.14
841.8,-1113.128,-185.928,-40.18,648.13,587.65
795.44,-848.632,-252.296,54.25,621.74,624.68
427.488,-456.768,-310.856,139.02,582.05,610.05
-111.264,-192.272,-434.32,209.16,536.2,546.07
-499.712,-151.28,-386.496,261.1,490.7,445.62
-457.256,-253.76,-274.256,292.81,447.58,333.34
-297.192,-321.592,-20.496,306.11,405.79,239.33
-178.12,-390.4,95.648,305.69,364.7,178.92
-226.432,-306.464,100.528,295.89,324.45,144.9
-205.936,-68.808,-30.744,281.12,285.53,120.61
-427.488,147.864,-254.736,264.39,247.73,86.8
-671.0,373.32,-447.496,246.26,213.36,22.75
-675.392,503.128,-531.92,227.15,183.4,-66.57
-982.344,586.576,-756.4,208.04,156.8,-163.03
-751.032,697.352,-833.504,190.82,134.4,-228.55
-664.656,705.648,-934.032,180.11,110.88,-227.92
-607.072,666.608,-1045.784,175.0,85.33,-178.92
-605.608,650.016,-1119.96,173.88,56.84,-109.2
-735.904,676.368,-1191.208,175.0,25.97,-48.51
-857.904,794.464,-1268.312,176.33,-5.81,-18.27
-890.112,878.888,-1234.64,177.24,-37.59,-20.72
-867.664,887.672,-1139.968,177.52,-68.95,-48.16
-767.136,814.96,-1043.832,176.89,-99.82,-87.57
-728.096,738.832,-974.536,175.7,-129.85,-122.78
-684.176,588.04,-972.584,174.58,-158.48,-145.11
-686.616,440.176,-952.088,173.04,-185.85,-153.09
-635.864,306.952,-915.488,170.8,-212.1,-147.98
-552.416,149.816,-880.352,167.16,-238.0,-132.72
-461.16,22.448,-850.096,161.49,-263.76,-112.42
-367.464,-118.584,-715.896,153.37,-289.66,-96.25
-240.584,-264.984,-520.208,142.8,-315.63,-92.89
-133.224,-362.096,-324.52,130.41,-341.46,-100.03
-90.768,-426.512,-155.672,117.95,-366.17,-109.83
-63.44,-506.056,-35.624,106.75,-388.78,-115.08
-88.328,-586.088,76.128,96.67,-408.59,-111.93
-123.464,-625.616,152.744,87.5,-425.25,-99.82
-162.016,-639.768,211.792,78.82,-438.76,-79.52
-125.416,-657.336,304.512,70.0,-449.54,-55.58
-73.688,-720.776,429.44,60.27,-458.85,-30.1
-91.744,-740.296,481.656,49.63,-466.76,-8.19
-77.592,-730.536,524.112,38.85,-472.71,7.91
-33.184,-710.528,548.024,29.33,-476.56,20.79
44.896,-650.504,567.544,21.14,-478.45,33.04
139.568,-615.856,559.248,15.4,-478.73,46.76
233.264,-587.064,514.352,11.62,-477.54,60.55
381.616,-560.224,488.488,10.15,-474.88,75.32
551.44,-583.648,491.416,10.92,-471.66,89.39
724.192,-646.6,406.016,13.02,-468.44,104.23
894.992,-721.264,330.376,16.03,-464.94,117.11
1138.016,-711.016,296.216,19.88,-461.58,132.51
1372.256,-756.4,231.8,24.36,-458.99,150.85
1605.032,-848.632,209.352,28.56,-457.38,171.57
1826.584,-927.2,138.104,32.2,-456.89,187.53
1982.256,-1012.112,86.864,36.12,-457.03,197.4
2169.16,-1124.352,58.56,40.74,-457.66,197.75
2220.888,-1110.688,41.48,46.9,-458.78,190.82
2247.728,-995.52,-13.176,56.35,-459.13,179.62
2257.488,-865.712,-175.192,70.77,-457.59,171.22
2206.248,-751.032,-326.472,90.3,-453.81,161.7
2121.336,-732.488,-445.056,114.73,-447.02,150.08
2021.784,-803.248,-558.76,142.1,-437.15,136.29
1901.248,-827.16,-596.336,171.01,-424.27,118.86
1933.456,-727.12,-595.36,201.32,-409.08,99.61
1966.64,-693.936,-708.576,232.68,-393.33,81.9
1893.928,-667.584,-682.712,263.76,-377.16,61.53
1742.648,-767.624,-691.496,293.65,-359.73,33.18
1545.496,-894.016,-699.304,321.16,-339.78,-3.15
1376.16,-1016.504,-650.016,346.22,-316.54,-43.75
1525.488,-997.472,-601.216,368.9,-290.64,-81.27
1940.288,-767.136,-725.168,390.67,-265.51,-105.7
1995.92,-634.888,-724.192,412.02,-243.25,-112.07
1821.704,-735.416,-738.344,430.92,-221.48,-114.24
1641.632,-881.328,-750.056,444.29,-198.24,-127.33
1478.64,-1098.0,-648.552,451.57,-172.9,-152.18
1337.12,-1380.552,-598.776,451.99,-145.39,-185.43
1225.856,-1603.08,-546.072,445.27,-115.85,-220.22
1208.288,-1725.568,-549.0,432.39,-85.12,-247.17
1263.92,-1695.8,-669.536,415.03,-55.09,-259.07
1259.528,-1609.912,-730.536,395.15,-27.51,-252.84
1188.28,-1543.544,-751.032,374.08,-3.01,-231.56
1083.848,-1478.152,-770.552,352.38,18.13,-203.07
1065.792,-1474.736,-875.472,330.54,36.19,-174.65
1111.176,-1452.288,-1058.96,308.35,50.61,-150.43
1121.912,-1355.664,-1116.056,286.37,61.46,-132.44
1104.832,-1250.256,-1063.352,265.23,69.51,-121.66
1055.544,-1135.576,-974.048,245.0,75.39,-118.3
956.968,-1043.832,-893.04,225.68,80.15,-122.64
828.136,-962.336,-803.736,207.13,84.77,-134.05
728.096,-906.216,-732.488,189.07,89.81,-148.33
666.608,-812.032,-615.856,171.57,94.99,-159.6
637.328,-641.232,-528.992,154.56,99.89,-165.55
642.696,-650.992,-526.064,137.9,104.02,-171.57
628.544,-549.488,-426.512,121.1,107.73,-171.43
626.104,-494.832,-360.632,105.7,111.16,-164.5
603.656,-419.68,-287.92,91.28,113.82,-152.74
593.896,-380.64,-228.384,77.91,115.36,-142.59
571.448,-321.104,-183.976,65.17,115.78,-136.71
537.288,-273.28,-149.816,53.76,115.36,-134.26
499.712,-223.504,-120.048,43.89,114.52,-134.47
486.048,-189.832,-73.688,35.56,113.26,-136.64
509.96,-74.176,27.816,27.65,110.95,-138.67
543.144,-102.48,-35.624,19.32,107.03,-133.7
570.96,-7.32,-89.304,9.94,101.92,-129.22
597.312,-54.168,-99.064,1.12,96.53,-130.2
595.848,-61.0,-54.656,-6.86,91.14,-130.55
552.416,-39.528,183.976,-12.39,86.45,-126.91
510.448,49.776,329.888,-15.26,82.53,-119.35
553.88,-68.808,116.144,-15.47,79.66,-110.25
650.016,-29.28,25.376,-15.12,76.79,-103.53
621.712,65.392,15.616,-14.14,73.92,-97.51
683.2,150.792,40.992,-13.02,71.96,-94.64
759.816,146.888,42.456,-13.02,69.86,-98.77
866.2,157.624,22.448,-14.63,67.13,-108.78
933.544,115.168,105.408,-17.5,63.56,-118.93
956.968,104.92,190.808,-21.56,59.78,-122.64
933.056,91.744,224.48,-25.97,56.7,-118.02
861.32,145.424,242.536,-30.31,54.95,-105.98
911.584,125.904,263.032,-34.23,54.25,-89.39
986.736,316.224,313.784,-37.73,52.78,-71.75
1072.624,153.232,375.76,-39.76,49.56,-56.63
1265.384,-105.408,474.824,-43.75,43.68,-46.48
1480.104,-129.808,540.216,-51.38,33.81,-36.05
1528.904,335.744,497.76,-58.73,20.65,-19.6
1284.416,216.672,510.448,-63.07,6.02,-0.63
1093.608,195.688,551.44,-66.99,-6.65,17.64
1060.424,171.288,584.624,-69.93,-17.29,36.82
1077.504,209.84,565.592,-71.82,-27.37,60.06
1039.928,280.6,607.072,-71.96,-37.03,86.87
987.712,307.44,644.16,-70.56,-45.71,112.63
908.168,365.024,640.744,-68.04,-53.06,132.23
830.576,450.912,639.28,-63.84,-58.45,142.38
793.488,473.848,638.792,-57.68,-61.88,141.33
690.52,463.6,611.464,-49.7,-63.63,129.71
553.88,416.752,606.096,-40.32,-63.14,110.81
507.032,365.512,608.048,-30.45,-60.62,88.9
509.472,222.528,645.624,-20.51,-57.05,69.3
558.76,74.176,754.936,-11.9,-52.71,56.63
405.528,-70.272,853.024,-4.83,-47.6,53.27
488.488,-111.264,751.52,0.77,-40.39,58.8
693.936,-53.68,759.816,6.58,-33.32,77.07
851.56,-35.136,764.208,14.0,-27.93,106.54
990.64,69.784,865.224,23.03,-23.94,138.25
1102.392,138.104,956.968,34.16,-21.77,163.8
1218.048,178.12,1033.096,46.76,-21.49,179.34
1266.848,187.88,1069.696,60.48,-22.82,183.96
1364.936,201.056,1120.448,75.04,-25.06,178.99
1384.944,147.376,1157.048,90.3,-28.42,165.9
1376.648,146.888,1175.104,105.77,-32.13,146.79
1338.096,75.64,1162.416,121.45,-35.21,122.64
1278.56,36.112,1146.8,136.15,-36.68,95.27
1202.432,-8.296,1151.192,149.66,-36.26,68.53
1084.824,-67.832,1146.8,161.28,-33.67,42.35
955.016,-271.328,1116.056,170.38,-28.63,15.05
918.904,-341.6,1044.32,175.91,-21.14,-9.8
905.24,-399.672,985.76,178.99,-11.9,-22.75
884.256,-428.464,917.44,179.83,-1.82,-21.84
840.336,-481.168,904.264,179.13,7.98,-11.76
776.408,-560.224,886.208,176.75,16.73,-1.33
710.528,-595.848,843.752,173.04,24.5,4.06
663.192,-613.904,786.656,168.91,31.5,5.04
674.904,-625.128,706.136,164.5,37.66,5.11
681.248,-622.688,655.384,159.95,42.49,6.44
701.256,-631.96,599.264,155.33,45.71,11.41
709.552,-675.392,540.704,150.99,46.83,19.18
732.0,-725.168,495.808,146.93,45.85,28.91
752.496,-749.08,464.088,143.36,42.56,42.14
744.2,-757.864,422.12,140.84,37.31,55.37
753.472,-758.84,384.056,139.93,30.8,65.03
741.76,-760.792,357.704,140.49,23.17,71.33
772.504,-737.368,314.76,142.31,14.7,77.63
759.328,-742.736,266.448,144.9,5.39,88.48
755.912,-628.056,197.64,147.77,-4.2,103.53
735.416,-546.072,111.752,152.04,-14.56,118.72
729.072,-439.2,105.408,157.01,-25.9,127.82
779.336,-344.528,97.112,162.54,-38.15,127.54
853.512,-267.912,83.448,168.35,-50.61,118.02
941.352,-229.848,78.568,174.16,-62.65,103.74
1016.016,-214.232,92.232,179.97,-73.92,91.77
1053.104,-206.912,101.992,185.43,-83.93,87.01
1084.824,-212.28,116.144,190.26,-92.54,86.94
1138.504,-188.856,101.992,194.39,-99.82,88.27
1206.336,-77.592,84.424,198.03,-106.12,90.3
1224.88,72.224,-9.272,202.3,-111.09,88.55
1200.968,183.0,-101.016,207.34,-114.24,75.53
1197.064,214.232,-148.84,212.52,-114.94,50.61
1223.416,106.872,-139.08,216.44,-113.82,21.0
1318.088,17.568,-68.808,217.35,-111.79,-2.17
1370.792,-63.44,-69.296,215.11,-109.83,-10.15
1382.992,-94.184,-98.576,209.72,-108.01,-5.11
1350.296,-78.568,-192.76,201.67,-106.26,5.11
1285.88,-25.376,-257.176,191.66,-104.37,15.26
1244.888,30.744,-327.448,180.32,-102.13,24.08
1214.144,47.824,-389.912,167.72,-99.89,28.21
1266.36,124.928,-506.056,154.56,-97.86,26.53
1322.968,207.4,-622.2,141.61,-96.67,22.19
1323.944,239.12,-728.584,129.01,-96.11,14.56
1298.08,195.2,-843.264,116.34,-95.97,1.68
1404.952,199.104,-907.192,103.18,-96.04,-7.84
1437.16,110.288,-1044.808,89.67,-97.09,-7.14
1540.616,53.68,-1198.528,75.11,-99.05,-1.26
1581.12,-84.912,-1355.664,58.94,-102.48,0.84
1712.392,-202.52,-1609.424,40.67,-106.96,-8.12
1870.016,-295.24,-1867.576,20.65,-112.7,-22.75
1988.6,-462.136,-2112.064,-0.98,-119.63,-37.17
2096.448,-785.192,-2239.432,-25.76,-127.82,-49.42
2216.008,-1154.12,-2407.792,-55.37,-137.62,-54.67
2331.664,-1474.736,-2492.704,-90.09,-148.68,-43.33
2531.744,-1586.976,-2600.064,-128.87,-160.58,-8.89
2820.64,-1702.632,-2730.36,-171.43,-172.9,47.74
2849.92,-1648.952,-2730.848,-219.1,-184.31,113.47
2540.04,-1519.632,-2911.408,-272.86,-190.33,164.71
2023.736,-2112.064,-3322.304,-334.11,-187.39,173.39
1920.28,-3323.768,-3605.832,-410.2,-177.38,123.97
2210.152,-4282.688,-3584.848,-504.63,-169.75,45.85
2792.336,-5479.264,-3434.056,-614.46,-170.59,2.73
3111.488,-7158.472,-3003.152,-742.21,-177.52,19.39
3458.456,-8043.216,-2090.592,-888.44,-182.0,70.0
3490.176,-8837.192,-913.048,-1042.86,-175.56,134.47
3005.104,-9059.232,428.464,-1195.25,-148.54,178.99
2052.528,-9188.064,1190.72,-1332.1,-95.83,183.4
912.56,-8812.792,1834.88,-1443.68,-16.8,179.2
1476.2,-342.576,-1961.272,-1289.4,24.85,247.87
-1913.936,-34.16,-689.544,-660.45,9.52,410.55
-1682.624,-5663.728,-314.76,-776.79,184.24,338.45
305.0,-7371.24,382.592,-892.43,319.83,323.96
1026.752,-5234.776,1091.656,-947.94,400.4,396.41
2445.856,-4187.528,745.176,-970.48,489.58,502.6
1678.72,-2597.136,32.208,-930.37,578.69,556.01
248.392,-1271.24,-1098.488,-843.36,666.33,482.51
-1354.2,-1094.096,-1830.976,-743.54,739.2,292.95
-1928.576,-1961.76,-1425.936,-665.84,795.06,88.55
-2218.936,-2424.384,-1490.84,-621.18,835.94,-43.75
-1651.392,-2246.752,-1165.344,-594.79,866.32,-79.66
-1031.632,-2041.792,-1621.624,-561.4,888.16,-58.17
-374.784,-1938.336,-1856.84,-513.38,901.6,-13.72
415.776,-1972.008,-2026.176,-451.01,906.5,51.38
1119.96,-1945.168,-1797.304,-376.32,901.81,145.95
1404.952,-1671.4,-1450.336,-288.47,888.37,268.59
1350.784,-1516.704,-1713.856,-186.9,868.35,397.74
1129.232,-1448.872,-1858.792,-79.66,840.35,499.59
779.824,-1227.808,-1693.36,24.08,800.87,555.03
274.256,-915.488,-1383.48,115.78,749.42,560.49
-391.376,-486.048,-1255.624,189.77,689.99,511.63
-1214.632,27.816,-1236.592,243.18,630.35,399.49
-1566.968,175.192,-1312.72,274.47,577.43,233.73
-1348.832,-48.312,-1241.96,282.03,531.16,54.25
-958.92,-552.904,-1315.16,269.71,488.11,-85.19
-635.376,-884.256,-1392.264,245.0,445.9,-152.46
-459.696,-1173.64,-1508.408,218.54,403.55,-140.0
-399.184,-1240.008,-1728.984,196.35,361.41,-73.22
-431.392,-1000.888,-1840.736,181.51,319.41,15.75
-471.896,-717.36,-1716.784,173.88,277.34,102.2
-529.48,-417.24,-1679.696,170.59,234.64,160.58
-564.616,-9.272,-1634.312,169.26,192.36,179.13
-653.92,322.568,-1525.976,169.05,151.9,159.32
-701.256,428.952,-1456.68,168.7,114.66,107.03
-683.2,426.024,-1391.776,166.67,80.92,36.61
-633.912,224.968,-1216.584,162.33,50.19,-31.64
-569.984,-69.784,-1072.136,154.84,21.84,-85.19
-518.744,-267.424,-976.976,144.34,-4.76,-117.95
-468.968,-402.6,-866.688,132.58,-29.89,-126.14
-478.728,-508.008,-786.168,120.33,-53.9,-113.61
-520.208,-612.928,-705.648,107.66,-76.58,-90.16
-585.112,-632.448,-626.104,94.5,-97.65,-67.55
-642.696,-570.96,-587.064,81.69,-116.62,-53.41
-673.928,-475.312,-577.304,70.28,-133.21,-48.02
-699.304,-382.104,-569.008,60.9,-147.49,-48.37
-671.488,-334.28,-560.712,53.48,-159.53,-52.22
-639.28,-278.648,-525.088,47.53,-170.1,-57.33
-544.12,-242.536,-481.656,42.84,-179.62,-62.3
-415.288,-154.208,-414.312,39.55,-189.14,-67.55
-305.0,-95.648,-401.136,37.59,-199.08,-73.5
-274.256,-16.104,-396.744,37.1,-209.23,-81.27
-241.072,1.952,-408.944,38.01,-218.89,-92.54
-258.64,-15.616,-394.792,39.83,-227.85,-108.5
-230.824,-85.888,-376.248,42.21,-235.97,-128.59
-173.728,-136.152,-348.92,44.87,-243.74,-150.08
-110.776,-177.144,-345.504,47.81,-251.37,-170.31
-18.544,-216.672,-381.128,51.31,-259.07,-187.04
82.472,-229.848,-382.104,55.23,-266.98,-197.4
173.728,-291.824,-388.936,59.5,-275.31,-201.11
226.432,-388.936,-411.384,63.21,-284.06,-201.53
272.304,-510.448,-410.408,65.87,-293.16,-202.3
314.76,-657.824,-400.16,66.92,-302.75,-205.03
358.192,-806.176,-419.68,66.43,-312.76,-209.16
402.112,-953.552,-456.28,64.61,-323.19,-214.13
488.488,-1048.712,-501.176,61.95,-334.11,-218.47
549.976,-1117.032,-535.336,59.08,-345.8,-220.01
623.176,-1256.112,-478.728,56.21,-358.26,-222.25
768.112,-1390.8,-345.504,53.27,-371.7,-227.78
950.136,-1529.392,-224.968,50.61,-386.68,-233.94
1129.72,-1602.104,-142.008,48.93,-403.34,-234.92
1334.68,-1692.872,-50.264,48.51,-421.54,-228.76
1537.688,-1741.672,14.152,49.49,-441.14,-216.37
1723.616,-1752.408,161.04,52.08,-461.58,-195.37
1873.92,-1701.168,296.704,55.72,-482.3,-166.25
1950.536,-1557.208,393.816,60.34,-502.53,-130.06
2015.44,-1394.216,434.808,66.08,-521.43,-89.95
2048.136,-1243.424,392.84,72.38,-538.86,-50.75
2039.352,-1132.648,335.256,79.17,-554.26,-17.99
2026.176,-1069.208,244.976,86.1,-567.35,1.4
1980.304,-979.416,172.752,94.22,-578.06,4.97
1972.984,-877.912,88.328,104.93,-586.18,-5.81
2021.296,-655.872,-27.328,119.56,-591.85,-23.8
2008.608,-420.656,-125.904,140.28,-595.42,-45.15
2022.76,-319.64,-269.864,166.6,-596.12,-68.74
2066.68,-195.688,-342.088,197.54,-594.16,-96.11
1986.648,-38.552,-379.664,232.96,-589.12,-125.3
1784.128,80.032,-447.496,273.07,-579.04,-157.36
1526.464,143.472,-463.112,317.17,-562.24,-196.28
1435.696,46.848,-716.384,363.86,-537.88,-242.62
1399.584,-60.512,-763.72,410.69,-506.94,-289.52
1372.256,-260.104,-702.232,455.35,-470.19,-330.4
1339.56,-436.272,-625.128,495.11,-428.68,-361.34
1233.664,-642.696,-488.488,527.73,-383.25,-382.13
1117.52,-901.824,-375.76,551.95,-334.6,-394.8
1069.208,-1166.32,-452.864,566.09,-284.2,-398.09
1046.76,-1318.576,-447.496,570.08,-234.15,-388.29
975.024,-1495.232,-411.384,564.9,-186.76,-369.46
936.96,-1626.504,-441.152,551.39,-143.15,-352.45
919.88,-1649.44,-441.64,531.37,-104.09,-343.49
922.32,-1535.248,-474.336,507.57,-69.09,-343.07
918.904,-1421.544,-476.288,482.16,-37.73,-348.67
919.88,-1357.128,-470.92,455.77,-9.52,-358.89
951.112,-1286.856,-495.808,428.82,16.1,-371.07
977.464,-1211.216,-521.184,401.73,39.06,-380.45
979.416,-1144.848,-483.12,374.78,59.43,-383.46
956.48,-1080.92,-439.2,348.18,77.28,-378.56
928.176,-1005.28,-378.688,322.35,92.4,-365.19
894.016,-927.2,-319.152,297.57,104.79,-344.4
870.104,-873.032,-315.248,274.12,114.38,-319.34
833.504,-804.224,-288.408,252.07,121.17,-294.0
792.512,-731.024,-269.376,231.49,125.65,-270.9
764.696,-669.536,-257.664,212.59,128.17,-251.02
715.408,-562.176,-223.016,194.95,129.08,-234.85
700.28,-512.4,-190.808,178.57,128.94,-225.61
654.408,-399.184,-158.112,162.47,127.75,-220.64
632.936,-358.68,-122.0,146.93,125.79,-221.27
624.152,-264.496,-90.768,131.11,122.99,-226.94
647.576,-195.688,-80.52,115.71,119.7,-231.98
663.68,-180.072,-90.768,101.64,115.99,-231.77
668.072,-170.8,-97.6,89.25,112.14,-225.26
666.12,-148.352,-100.04,78.54,107.94,-214.34
650.992,-82.96,-92.232,69.23,103.18,-201.53
528.992,60.512,-62.464,60.83,97.37,-189.98
756.4,37.576,-137.128,53.06,90.23,-179.83
685.64,122.0,-152.744,44.87,80.29,-175.28
741.76,223.992,-146.4,37.24,69.58,-173.74
772.504,204.472,-38.064,30.73,58.52,-171.01
734.928,228.384,97.112,24.64,48.3,-163.59
816.424,287.432,-81.984,19.81,40.04,-148.96
838.384,341.112,-162.016,16.03,33.18,-129.08
745.176,435.296,-174.216,13.02,27.93,-106.54
747.128,584.136,-158.6,10.85,24.57,-84.49
834.48,676.856,-137.616,9.73,21.56,-68.6
893.04,685.64,-94.672,9.17,17.85,-62.86
896.456,614.88,-27.816,8.05,13.93,-66.5
810.08,575.352,89.792,5.67,10.78,-74.48
751.52,584.624,176.168,2.17,9.31,-80.57
730.536,620.248,179.096,-1.89,9.66,-79.52
729.072,684.176,182.024,-6.23,11.13,-70.0
752.008,668.56,213.256,-10.92,12.88,-54.25
742.248,579.744,277.184,-16.87,14.21,-35.91
867.176,458.232,322.08,-24.78,14.84,-15.19
1127.28,343.064,392.84,-34.72,12.88,9.66
983.808,675.88,360.144,-45.22,7.63,40.11
1065.304,759.328,393.816,-52.22,2.1,72.24
970.632,681.736,397.232,-57.12,-4.27,99.82
860.832,640.256,385.52,-61.46,-9.94,120.19
805.2,619.76,402.6,-65.38,-14.63,134.12
780.312,661.24,429.928,-68.53,-18.55,144.13
833.504,718.336,447.008,-70.49,-22.05,152.53
889.624,763.232,453.84,-70.91,-25.83,159.88
902.312,808.128,474.824,-69.79,-29.68,165.69
878.4,772.992,501.664,-67.41,-33.11,168.07
816.424,730.048,513.376,-64.33,-35.56,166.04
787.632,743.224,498.736,-60.55,-36.68,161.35
795.44,813.008,460.672,-55.72,-36.89,155.75
904.752,864.736,522.648,-49.28,-36.61,151.13
823.256,854.976,605.12,-41.65,-36.61,147.14
629.032,909.632,571.936,-33.18,-34.93,140.91
801.296,772.016,462.624,-23.45,-31.22,131.81
833.504,628.544,394.304,-14.42,-28.21,122.36
558.272,691.984,432.856,-6.51,-23.94,113.4
460.184,656.36,486.048,1.54,-16.17,102.76
516.792,593.896,469.456,9.73,-6.23,91.21
635.864,490.44,469.944,17.99,3.78,83.23
732.488,432.856,469.456,26.11,13.3,82.81
818.376,331.352,433.344,34.23,22.19,92.12
800.808,335.256,481.656,42.14,30.52,111.16
954.04,185.928,577.304,50.61,37.73,138.18
1028.704,409.92,714.92,59.36,42.21,171.64
1213.168,377.224,844.728,71.33,43.68,210.42
1314.672,332.328,898.408,84.35,41.37,243.53
1264.896,323.544,962.336,97.44,36.19,259.77
1215.608,257.664,1024.8,109.83,29.75,250.67
1280.512,162.016,1078.968,120.05,22.89,215.46
1325.896,-137.128,1078.48,126.84,15.75,161.49
1309.304,-189.832,932.08,130.27,9.66,102.97
1341.512,-271.816,929.64,132.79,6.09,59.57
1346.88,-306.952,869.128,134.61,4.34,41.3
1174.616,-373.808,818.864,135.94,4.2,39.34
1045.784,-396.744,748.104,136.64,5.95,40.81
896.944,-477.752,686.616,136.92,9.45,43.96
769.088,-595.36,634.4,136.5,14.42,49.77
682.224,-700.28,638.304,135.73,20.16,60.9
661.24,-773.968,599.264,135.31,24.92,75.46
575.352,-888.16,601.216,135.24,27.51,87.57
590.968,-888.648,586.576,135.38,28.07,95.06
609.024,-896.456,559.736,136.5,26.25,103.67
558.76,-886.208,549.976,139.02,22.19,113.19
584.136,-789.096,523.624,142.87,15.68,117.74
574.376,-680.76,528.504,147.84,6.65,115.01
555.344,-594.384,484.096,153.51,-3.36,106.12
505.568,-573.4,451.888,159.11,-13.23,92.19
468.48,-560.712,423.584,164.36,-22.12,74.62
455.792,-591.456,419.192,168.91,-29.68,57.89
584.624,-653.92,396.256,172.41,-36.26,49.7
739.32,-687.592,416.752,174.37,-43.12,56.14
814.472,-646.112,361.608,175.21,-50.61,73.43
765.184,-496.296,246.44,175.98,-57.61,88.62
643.184,-377.224,187.88,177.66,-62.37,90.93
606.584,-286.456,169.824,180.18,-64.26,78.26
691.496,-218.624,146.888,183.4,-64.19,60.06
871.08,-164.456,92.72,186.97,-63.42,46.69
1047.248,-116.632,50.264,190.68,-62.93,42.63
1152.168,-85.4,-0.976,193.97,-63.21,45.64
1191.696,-75.152,-33.184,196.21,-64.05,51.1
1222.44,-119.56,-49.776,196.63,-64.96,56.07
1217.56,-183.488,-35.624,194.6,-66.29,57.12
1236.592,-203.008,-58.56,189.91,-67.62,54.18
1233.664,-186.416,-133.224,183.68,-68.74,50.54
1176.568,-181.536,-223.016,176.47,-69.23,43.54
1198.528,-165.92,-282.552,168.35,-68.74,34.02
1262.456,-178.608,-310.856,159.53,-68.18,29.47
1312.232,-142.984,-349.896,149.87,-68.25,32.83
1263.92,-95.648,-428.464,140.07,-68.74,38.08
1178.52,-17.568,-529.968,130.9,-68.81,35.63
1117.032,2.44,-626.592,122.64,-67.83,23.94
1197.064,26.352,-720.288,115.01,-66.36,11.48
1249.768,-26.84,-814.96,107.73,-65.59,6.65
1273.68,-121.024,-899.384,99.61,-65.73,7.21
1331.264,-204.96,-963.312,89.81,-66.78,10.36
1449.848,-288.896,-1130.208,78.68,-69.23,15.47
1536.712,-305.488,-1299.056,66.78,-73.22,21.42
1729.96,-303.048,-1512.8,54.88,-78.61,28.98
1914.912,-396.744,-1671.4,42.7,-86.73,35.07
2120.848,-521.184,-1912.96,28.77,-97.72,31.36
2286.768,-793.488,-2055.944,12.11,-111.65,16.59
2292.624,-1159.976,-2166.232,-8.54,-127.68,-7.14
2256.024,-1573.8,-2281.888,-33.25,-143.85,-30.24
2367.776,-1837.32,-2364.848,-61.95,-159.25,-33.32
2352.16,-2230.648,-2449.272,-94.5,-174.79,-9.1
2292.624,-2572.248,-2520.032,-134.26,-188.72,34.23
2335.08,-2787.456,-2755.736,-183.33,-199.57,96.81
2326.784,-3452.6,-3191.52,-245.0,-205.94,164.36
2318.976,-4435.432,-3530.68,-325.57,-205.87,205.87
2600.552,-5282.112,-3418.928,-427.35,-199.92,210.56
2923.608,-6399.144,-3119.296,-546.91,-191.31,196.07
2857.24,-7795.8,-2618.608,-684.04,-180.18,169.96
2419.504,-9206.12,-1618.208,-838.46,-162.82,139.3
1757.288,-10161.624,-265.472,-1005.41,-132.86,135.17
816.424,-10699.4,1296.616,-1175.37,-80.43,172.83
243.024,-10295.336,3157.36,-1335.81,4.48,243.74
-145.912,-8744.96,4065.528,-1461.46,127.75,335.3
-9.272,-1544.032,2835.28,-1257.9,235.69,735.35
-3968.416,-1747.528,2407.792,-630.0,460.95,1501.57
-3056.832,-3298.392,2943.128,-629.16,619.43,528.15
18.544,-4595.984,3107.096,-694.26,625.87,-344.33
2999.248,-5662.264,2670.824,-817.6,559.02,-610.54
3465.288,-5705.208,1474.248,-903.49,470.54,-404.18
2044.232,-5717.896,371.856,-921.34,436.66,-29.47
306.464,-4193.872,-185.44,-885.92,468.58,231.91
-1086.288,-3441.376,-382.592,-812.21,530.74,271.74
-1571.36,-2245.288,-466.04,-724.5,584.5,139.79
-1604.544,-1546.472,-866.688,-637.84,617.47,-14.63
-1185.84,-1238.544,-1110.2,-560.35,636.51,-107.52
-733.464,-1305.4,-981.368,-493.08,648.48,-130.06
-181.536,-1223.904,-952.088,-432.67,656.67,-119.21
137.616,-1276.608,-933.056,-378.14,660.94,-108.78
-457.256,-2024.224,-376.248,-336.28,665.49,-115.57
-448.472,-1657.248,-242.536,-312.2,675.43,-134.68
435.784,-1052.128,-419.192,-288.89,684.95,-87.78
1034.072,-729.072,-650.992,-246.96,689.29,35.56
1064.816,-665.632,-754.448,-186.13,687.75,170.66
762.744,-876.448,-786.656,-117.53,679.56,254.66
434.32,-992.592,-716.872,-55.72,662.34,261.52
189.344,-1123.376,-337.208,-9.45,635.95,203.42
111.752,-1186.328,-309.88,17.15,600.88,105.14
69.784,-1077.504,-433.832,26.88,559.65,9.8
118.096,-879.376,-722.728,28.07,514.57,-48.72
92.72,-749.08,-827.648,28.42,466.27,-58.38
-45.384,-740.784,-934.032,30.94,415.66,-32.69
-301.096,-841.312,-1061.888,34.09,364.21,-0.07
-630.984,-885.232,-1133.136,35.56,314.16,19.53
-907.68,-743.712,-1160.464,35.21,267.47,21.84
-1066.768,-468.48,-1163.88,35.07,224.35,8.82
-1045.784,-183.0,-1252.208,36.96,183.47,-14.84
-1028.704,15.616,-1287.832,41.72,143.85,-39.34
-1000.888,161.04,-1254.648,48.72,105.7,-62.09
-1036.024,217.648,-1196.088,57.47,69.58,-84.7
-1112.152,222.04,-1111.176,66.71,36.26,-112.21
-1145.824,220.576,-1054.568,75.95,6.09,-144.62
-1179.008,151.28,-928.176,85.12,-20.79,-177.52
-1174.128,40.992,-785.192,93.66,-44.24,-206.43
-1179.008,-40.504,-734.44,101.43,-64.61,-226.73
-1184.376,-116.144,-683.688,108.36,-82.04,-237.51
-1146.312,-172.752,-622.688,114.24,-97.02,-240.52
-1092.632,-280.112,-541.68,118.44,-110.6,-238.14
-995.032,-397.72,-450.912,120.4,-123.55,-232.4
-850.096,-507.032,-406.016,119.56,-136.85,-222.46
-690.032,-527.528,-390.888,116.2,-151.13,-207.2
-560.712,-570.472,-369.904,110.95,-166.88,-189.14
-437.736,-668.072,-354.288,103.53,-184.03,-174.72
-343.064,-722.728,-334.28,93.8,-202.51,-166.95
-257.176,-736.392,-341.112,82.95,-221.69,-164.01
-180.56,-777.384,-335.256,71.75,-240.8,-162.33
-91.744,-850.096,-345.992,60.48,-259.49,-160.65
11.712,-952.088,-354.776,49.42,-277.55,-157.92
115.656,-1048.712,-334.768,38.36,-294.91,-153.86
211.304,-1082.872,-330.864,28.14,-311.22,-146.86
291.824,-1113.616,-341.112,19.32,-326.06,-136.29
330.376,-1119.96,-366.488,12.32,-339.08,-125.86
378.688,-1125.816,-387.472,7.42,-350.0,-115.92
458.72,-1121.424,-428.952,4.41,-359.03,-107.45
582.184,-1085.312,-449.936,3.57,-366.73,-98.56
685.152,-1017.48,-462.624,4.83,-373.73,-87.78
808.616,-1005.28,-534.36,7.98,-380.31,-77.7
925.248,-1078.48,-579.256,12.11,-386.54,-66.92
1088.24,-1184.864,-563.64,15.96,-393.12,-58.87
1225.368,-1253.184,-507.032,19.18,-400.68,-51.03
1295.64,-1263.92,-457.744,22.26,-408.87,-45.85
1341.024,-1262.944,-441.64,26.04,-416.92,-42.42
1396.656,-1210.24,-435.296,31.08,-424.27,-39.27
1502.552,-1141.92,-422.608,37.59,-430.85,-31.71
1606.008,-1119.96,-402.112,45.15,-437.08,-19.32
1694.824,-1139.48,-441.64,52.99,-443.24,-6.86
1705.072,-1099.952,-418.216,61.04,-449.19,0.0
1705.56,-1120.936,-412.848,70.07,-454.23,-0.56
1771.928,-1064.328,-497.76,80.43,-457.94,-5.46
1788.032,-893.528,-518.256,93.38,-460.46,-8.4
1793.4,-783.24,-601.704,109.13,-461.65,-7.98
1833.416,-745.664,-688.08,126.84,-461.93,-7.84
1827.072,-755.912,-713.456,145.11,-461.86,-10.78
1836.344,-800.32,-840.824,163.73,-461.16,-18.2
1868.552,-793.488,-1033.096,182.77,-460.11,-30.94
1851.472,-690.032,-1089.216,203.35,-458.22,-45.15
1873.432,-656.36,-1195.112,226.17,-455.35,-60.55
1834.392,-677.832,-1360.056,250.46,-451.29,-76.37
1691.896,-637.328,-1362.496,275.38,-445.34,-93.17
1510.36,-605.12,-1401.536,301.14,-436.31,-108.92
1335.656,-566.568,-1437.16,327.11,-423.92,-123.06
1228.296,-527.528,-1439.112,352.73,-408.45,-136.01
1148.264,-501.176,-1408.856,377.44,-390.81,-145.25
1098.0,-613.416,-1405.928,399.91,-371.84,-152.81
1008.208,-739.808,-1411.784,418.67,-351.82,-161.14
849.12,-835.944,-1303.936,433.16,-330.33,-170.03
729.56,-934.032,-1218.048,443.52,-307.02,-177.59
663.68,-977.464,-1119.472,449.68,-282.73,-182.35
611.464,-1020.896,-973.072,452.13,-258.58,-183.96
628.544,-1108.248,-957.944,450.52,-235.34,-184.45
659.776,-1165.832,-938.912,445.06,-213.85,-187.25
649.528,-1169.736,-854.0,436.45,-194.18,-194.53
607.56,-1163.88,-764.696,425.74,-175.56,-208.32
544.12,-1168.76,-642.696,413.56,-157.15,-227.78
536.8,-1145.824,-540.216,400.05,-138.67,-246.96
521.672,-1115.08,-461.648,385.56,-120.47,-259.49
467.992,-1067.256,-385.52,370.16,-103.04,-263.13
462.624,-1011.136,-307.44,354.13,-86.66,-257.6
455.304,-976.0,-281.576,337.47,-72.17,-245.35
420.656,-962.824,-261.08,320.25,-59.71,-230.86
406.016,-938.912,-250.832,302.75,-49.0,-217.35
362.096,-796.416,-207.4,284.55,-39.9,-206.64
430.416,-678.808,-281.088,265.58,-31.92,-215.88
439.2,-547.048,-177.632,245.91,-24.22,-228.2
364.048,-583.648,-120.536,227.85,-15.75,-241.85
402.112,-449.936,-96.136,209.3,-6.51,-265.3
399.184,-395.768,-115.168,192.43,2.52,-284.76
448.96,-430.416,-149.328,177.45,12.11,-294.35
499.712,-483.608,-181.536,164.15,21.28,-292.53
570.96,-509.472,-189.832,152.53,29.54,-277.55
667.096,-503.128,-171.288,143.22,36.75,-247.66
605.608,-387.96,-200.568,136.29,42.77,-204.68
420.168,-107.36,202.52,130.27,48.09,-154.21
498.736,29.768,210.816,122.85,50.68,-106.68
683.688,-43.432,-322.08,112.98,49.42,-76.16
813.496,-127.856,-534.848,100.1,45.99,-67.48
654.408,-102.968,-382.104,85.82,43.75,-86.17
538.264,-15.128,-246.44,72.52,44.52,-117.18
553.88,-56.608,-186.416,61.74,47.04,-147.14
505.568,-91.256,-108.824,52.85,50.68,-169.54
595.848,-68.32,-18.056,45.29,55.72,-180.74
773.968,-146.4,55.144,37.8,60.34,-178.64
984.784,-8.784,106.384,29.26,63.35,-162.19
909.632,74.176,132.736,22.54,65.03,-133.35
832.528,0.488,163.48,16.94,67.27,-98.49
777.384,-88.328,178.608,11.13,69.79,-62.86
1116.544,-258.64,210.816,3.85,70.91,-28.14
1380.552,-75.64,331.352,-4.9,66.64,4.06
1518.168,-48.312,409.432,-13.86,57.12,31.15
1360.056,327.448,419.192,-21.77,45.5,52.99
1415.2,234.24,401.136,-26.53,34.09,68.67
1231.712,263.52,387.96,-30.59,22.47,77.91
1237.08,186.416,349.408,-33.53,12.32,83.58
1161.928,291.824,321.592,-36.05,3.01,88.41
1168.76,384.544,257.176,-37.45,-4.76,89.67
1126.304,372.344,319.152,-38.36,-12.04,86.8
1196.088,323.544,366.976,-38.85,-18.62,81.27
1213.656,327.936,366.0,-38.5,-25.2,75.04
1240.984,355.264,394.792,-36.89,-31.15,69.16
1244.888,359.168,409.432,-34.02,-36.47,64.26
1240.008,341.6,416.752,-30.24,-41.16,60.62
1249.768,341.112,381.616,-25.97,-45.5,59.08
1385.432,329.888,439.688,-21.21,-49.91,62.02
1308.816,301.096,429.44,-16.59,-55.09,67.06
1044.808,356.24,399.672,-12.32,-58.87,70.21
329.4,528.992,477.752,-7.21,-57.75,68.46
206.424,362.096,141.032,0.28,-48.16,55.58
424.072,254.248,-56.608,7.28,-35.56,35.42
687.104,303.048,145.424,13.65,-24.57,18.13
712.48,197.152,202.52,19.39,-15.61,7.49
642.208,230.336,189.344,23.73,-6.79,0.91
670.024,224.968,223.504,28.35,2.94,0.35
670.512,133.224,263.032,33.46,12.46,6.3
645.136,26.352,255.712,37.66,21.14,17.08
589.992,50.752,402.112,41.02,29.12,34.79
606.096,-37.576,541.68,44.45,36.05,57.96
713.944,-169.824,608.536,46.9,40.53,80.92
873.52,-251.32,717.36,48.02,41.65,101.43
1051.64,-233.752,817.888,48.51,39.34,120.47
1195.112,-241.56,932.568,49.42,34.3,139.16
1292.712,-287.432,1015.04,51.17,27.58,157.15
1308.816,-318.664,1100.44,53.83,20.23,173.88
1322.968,-371.368,1159.0,57.4,13.16,186.9
1277.584,-414.312,1191.208,61.46,6.09,191.38
1247.816,-533.384,1189.744,65.66,-0.56,183.61
1217.56,-534.848,1056.032,69.79,-6.44,166.6
1099.952,-510.448,996.008,75.04,-10.57,147.14
963.8,-531.92,941.352,81.76,-11.76,128.66
783.728,-554.856,892.552,89.74,-9.73,110.25
667.584,-552.904,824.232,99.12,-4.76,93.03
584.624,-523.136,774.944,109.62,2.03,78.33
554.368,-494.344,727.12,121.1,9.59,64.61
571.936,-487.512,696.376,132.93,16.66,51.1
605.12,-498.736,735.416,144.34,22.05,38.99
641.72,-615.856,708.576,154.84,24.99,26.74
630.496,-681.736,659.776,163.24,25.69,15.47
791.048,-738.832,707.112,169.89,24.29,12.88
923.784,-805.688,714.432,175.0,19.11,24.15
1002.352,-839.848,696.376,178.85,10.15,45.5
1090.68,-897.92,694.912,181.79,-2.31,69.09
1076.528,-915.0,679.784,183.68,-17.85,86.52
1102.88,-903.776,652.944,184.94,-34.93,93.1
1107.76,-903.776,629.52,186.13,-52.78,90.02
1086.776,-967.704,646.112,187.81,-70.35,80.22
1095.56,-955.016,577.792,189.77,-86.8,67.27
1048.712,-882.304,505.08,193.06,-101.43,57.4
1017.968,-836.92,447.496,198.31,-113.12,57.75
952.576,-718.336,386.496,204.4,-121.8,69.44
836.432,-580.232,316.712,210.84,-127.89,83.37
758.84,-488.0,247.904,217.35,-131.95,90.44
694.424,-394.792,204.96,223.86,-134.61,89.18
691.984,-273.768,139.08,230.3,-135.8,79.52
683.688,-201.056,108.824,236.74,-135.8,65.03
686.616,-191.784,97.112,242.62,-134.47,48.3
674.904,-161.528,55.144,247.1,-132.23,32.69
699.304,-134.2,68.32,250.11,-129.29,21.56
736.88,-132.736,67.344,251.58,-126.21,15.19
757.376,-112.728,51.728,251.79,-122.78,12.6
867.664,-76.128,6.832,251.09,-119.14,12.32
903.776,-56.12,-35.136,249.41,-115.99,12.67
894.992,-3.904,-51.24,246.75,-112.7,10.57
820.816,37.576,-69.784,243.32,-108.5,3.5
752.496,57.096,-97.6,239.26,-102.76,-10.57
756.888,97.112,-146.888,234.5,-95.34,-28.84
797.392,154.208,-213.256,229.39,-87.08,-44.45
802.272,173.728,-272.792,223.93,-78.4,-53.76
811.056,167.384,-296.216,217.7,-69.51,-57.19
767.136,130.296,-293.776,209.86,-60.83,-56.21
733.952,82.96,-296.704,200.2,-52.22,-53.34
729.56,40.016,-302.56,188.51,-44.45,-48.72
747.616,8.296,-339.648,174.93,-37.73,-40.6
745.176,45.872,-393.816,160.37,-32.34,-29.82
712.968,72.712,-486.048,145.39,-28.0,-19.95
652.944,111.752,-580.72,130.2,-24.15,-15.05
612.44,72.712,-610.488,114.45,-20.58,-16.73
643.184,42.944,-644.16,97.72,-17.57,-22.4
699.304,-15.616,-710.04,80.29,-15.61,-26.25
754.936,-48.312,-781.776,62.37,-14.91,-25.34
843.752,-66.856,-919.392,44.31,-15.26,-18.55
982.832,-66.856,-1099.952,26.67,-17.01,-7.0
1141.92,-100.528,-1282.952,9.38,-20.58,5.04
1403.0,-144.936,-1537.2,-8.12,-26.53,13.65
1696.288,-167.384,-1891.976,-25.83,-35.49,18.9
1867.088,-302.072,-2238.456,-43.96,-47.32,19.39
1923.208,-579.744,-2488.312,-63.49,-60.48,12.6
2045.696,-955.016,-2654.72,-85.75,-73.85,7.0
2208.688,-1386.408,-2735.24,-112.14,-87.85,14.35
2217.96,-1789.496,-2675.704,-144.06,-102.83,29.75
2432.68,-1907.592,-2717.672,-180.88,-118.09,50.19
2794.776,-1583.072,-3043.656,-219.45,-134.33,85.89
2899.208,-1574.776,-3261.792,-258.44,-150.92,128.17
2925.072,-1635.288,-3459.432,-303.17,-166.11,148.05
2716.696,-2127.68,-3814.208,-357.0,-180.04,125.51
2857.24,-2902.624,-3870.816,-423.92,-194.67,62.37
3238.856,-3236.904,-3933.768,-503.09,-214.55,6.3
3320.84,-3844.464,-3973.296,-590.31,-238.0,6.65
3552.152,-4532.544,-3765.896,-687.75,-255.5,73.5
3609.248,-5472.432,-3186.64,-797.86,-259.7,172.34
3876.672,-6600.688,-2270.664,-921.41,-247.87,240.1
4157.272,-8391.16,-841.312,-1057.49,-225.75,258.23
4126.04,-10071.344,895.48,-1206.31,-195.23,264.95
2827.472,-11238.152,2665.456,-1361.5,-144.62,297.29
1050.664,-10819.937,4184.6,-1507.38,-47.81,380.8
3219.824,-3985.984,-136.152,-1283.87,105.98,918.4
-1994.944,3884.48,-1059.936,-507.71,140.77,1868.58
-633.424,2522.96,2797.216,-482.86,522.55,1473.36
-1194.624,1675.792,-227.896,-516.95,791.77,655.55
57.096,4040.64,-422.608,-435.47,837.06,-142.52
2658.624,692.96,-2972.896,-410.76,788.76,-622.16
3325.72,-941.352,-3346.704,-433.09,707.98,-779.73
2089.128,-2243.824,-3334.992,-458.57,636.23,-703.78
1139.48,-2956.792,-2069.12,-485.59,599.27,-530.32
891.576,-3047.072,-1246.352,-501.83,591.85,-308.77
947.696,-2594.696,-644.648,-496.65,605.99,-77.42
1089.216,-1615.28,-369.416,-461.72,634.34,118.09
1218.536,-865.224,-275.72,-399.0,666.12,230.65
1410.32,-358.68,-8.296,-322.49,690.55,244.37
1248.304,-259.616,108.824,-247.8,701.19,174.3
1117.032,-429.928,258.64,-189.21,699.37,52.78
1273.68,-752.984,207.888,-151.2,687.61,-64.82
1578.68,-1060.424,192.272,-129.99,667.45,-132.09
1707.512,-1149.24,196.176,-115.78,640.99,-127.33
1460.096,-1390.8,154.208,-99.68,610.19,-75.88
1346.392,-1365.424,-15.128,-80.92,576.52,-17.43
1259.04,-1269.288,-179.096,-58.59,538.09,30.52
1107.272,-1153.144,-444.08,-34.86,494.9,57.4
894.504,-1074.088,-697.352,-12.04,448.84,62.09
638.792,-936.472,-712.48,8.12,402.29,55.16
483.12,-812.52,-756.4,26.25,356.3,50.75
194.712,-688.568,-761.28,43.61,310.87,53.34
-67.344,-477.264,-755.912,60.48,267.47,54.32
38.064,-373.808,-843.752,77.42,225.61,49.0
155.184,-341.6,-874.496,93.52,182.84,38.57
10.248,-351.848,-903.288,108.01,140.0,20.23
-365.024,-352.336,-943.304,120.89,101.01,-9.52
-796.416,-320.616,-903.288,132.93,68.88,-45.15
-1003.816,-382.104,-855.952,144.83,44.24,-75.53
-1097.512,-495.808,-813.984,156.31,24.64,-93.17
-1245.376,-578.28,-813.008,166.81,8.19,-98.56
-1497.184,-624.64,-813.984,176.68,-5.11,-97.51
-1693.848,-686.616,-794.464,185.64,-15.19,-95.76
-1815.36,-790.072,-677.832,193.55,-22.75,-91.49
-1825.12,-909.144,-607.072,199.57,-28.84,-80.5
-1762.168,-1000.888,-587.064,203.56,-34.79,-59.5
-1725.08,-1042.856,-528.992,205.73,-41.72,-30.52
-1581.608,-1059.936,-552.416,206.43,-50.54,0.28
-1362.008,-1039.928,-563.152,205.8,-62.44,28.91
-1138.992,-969.656,-570.472,204.61,-77.91,54.88
-976.976,-854.0,-607.56,203.56,-96.39,77.07
-794.464,-754.936,-632.448,202.86,-116.76,95.06
-579.744,-657.336,-603.656,202.79,-138.46,111.44
-411.872,-605.12,-539.728,202.65,-161.07,126.91
-275.72,-529.48,-480.68,202.02,-183.89,139.72
-165.92,-503.128,-421.632,201.04,-205.87,150.64
-88.328,-481.168,-377.224,199.36,-226.31,161.42
-19.032,-456.768,-319.64,196.84,-244.51,175.42
48.312,-381.616,-293.776,193.55,-260.33,191.87
77.104,-310.856,-250.832,189.77,-274.12,204.4
83.448,-301.584,-181.536,185.57,-285.88,206.85
93.696,-297.68,-147.864,181.16,-295.26,200.97
119.072,-336.232,-105.896,176.75,-302.26,192.64
147.376,-366.976,-97.6,172.55,-306.74,185.71
207.4,-399.672,-107.848,168.56,-308.98,184.03
280.112,-400.648,-120.536,164.64,-309.47,188.3
356.728,-413.824,-127.368,160.79,-308.84,198.59
432.856,-398.208,-82.472,156.31,-307.37,215.39
522.648,-326.472,-62.952,151.41,-305.55,236.39
606.096,-256.2,-51.728,146.58,-303.52,258.3
684.176,-228.872,-23.912,141.61,-301.0,278.32
772.992,-266.448,-53.68,136.29,-297.85,295.47
868.152,-314.76,-50.264,129.92,-293.93,308.07
920.856,-373.808,-46.848,123.2,-289.03,315.7
950.136,-514.352,-42.944,116.06,-282.17,319.34
1128.256,-568.032,-2.44,108.57,-272.79,320.67
1477.664,-426.512,26.352,101.92,-262.92,325.29
1708.976,-399.184,91.256,97.02,-254.1,340.83
1956.392,-329.888,115.168,92.05,-246.47,361.2
2093.032,-284.016,30.744,87.43,-239.89,381.15
2104.256,-392.84,7.32,82.95,-233.45,392.42
2213.08,-507.52,17.08,77.84,-226.38,388.36
2461.472,-499.224,54.168,72.94,-219.45,372.26
2676.68,-495.32,146.888,69.37,-213.92,350.07
2863.584,-478.728,162.992,67.55,-209.86,322.63
2818.2,-508.496,138.592,67.69,-206.5,290.57
2573.224,-655.384,133.712,69.44,-201.32,253.89
2329.712,-908.168,100.04,71.47,-191.94,215.74
2423.896,-974.536,100.04,73.71,-178.64,185.15
2716.208,-711.504,69.296,78.19,-164.85,174.72
2785.504,-487.512,36.112,86.66,-153.23,185.85
2672.776,-375.76,-29.28,97.58,-142.73,201.74
2429.264,-376.736,-114.192,109.27,-132.37,202.93
2121.336,-460.184,-131.272,120.61,-120.75,180.46
1875.872,-576.816,-131.76,130.97,-106.96,140.63
1738.744,-676.368,-147.864,140.07,-91.35,98.98
1706.048,-703.696,-153.232,148.19,-75.39,70.35
1705.072,-708.088,-180.072,155.61,-60.41,60.76
1728.008,-650.016,-187.88,162.26,-47.53,65.45
1751.432,-531.432,-184.952,168.84,-37.59,76.23
1686.04,-427.0,-184.952,175.35,-30.66,84.56
1539.152,-348.432,-174.216,181.72,-25.69,82.32
1355.664,-314.76,-155.184,187.39,-21.49,65.66
1190.72,-334.28,-125.904,192.08,-16.73,36.96
1058.96,-399.672,-109.312,195.44,-11.13,2.17
983.808,-452.376,-86.864,197.05,-4.55,-31.08
959.896,-489.952,-64.904,197.33,2.45,-57.4
964.776,-536.8,-51.24,196.35,9.17,-75.04
996.496,-585.112,-49.288,194.04,15.12,-83.02
1014.064,-627.568,-22.936,190.61,19.81,-81.97
1009.184,-672.464,6.832,185.78,22.96,-75.88
1009.184,-715.896,39.04,179.62,24.71,-68.04
1016.504,-732.488,76.616,172.27,24.85,-60.34
1004.792,-740.784,98.576,163.87,23.59,-54.32
977.952,-748.592,122.0,154.77,21.35,-52.08
965.752,-755.424,136.152,145.11,18.48,-53.69
948.672,-748.104,142.496,135.1,15.12,-58.03
929.152,-753.472,146.888,124.88,11.55,-63.42
919.392,-737.368,149.816,114.73,7.91,-67.83
915.0,-720.288,133.224,104.93,4.27,-69.58
891.088,-696.376,147.376,95.48,0.42,-68.18
886.208,-685.152,150.792,86.66,-3.36,-63.77
893.04,-635.864,187.88,78.19,-7.14,-57.4
847.656,-634.888,143.472,70.21,-10.64,-52.85
839.848,-582.184,223.504,62.09,-13.44,-49.84
890.112,-592.432,268.4,54.32,-16.1,-47.39
869.128,-584.136,290.848,46.55,-18.34,-46.06
847.168,-595.848,330.376,38.99,-20.3,-44.73
844.24,-585.6,337.696,31.92,-22.47,-42.56
833.992,-587.552,356.24,25.76,-24.92,-37.66
811.056,-568.032,355.264,20.58,-27.23,-29.54
785.68,-546.56,366.976,16.59,-29.33,-19.32
765.672,-508.984,357.216,13.65,-31.01,-8.47
733.464,-465.064,342.576,11.76,-32.55,1.33
709.552,-390.4,335.256,10.71,-33.88,8.05
696.864,-319.152,310.368,10.64,-35.0,10.22
679.296,-249.368,296.216,11.13,-35.84,7.56
673.44,-192.272,289.384,12.04,-36.33,0.91
677.344,-149.328,282.552,13.3,-36.26,-7.49
681.248,-125.416,276.696,14.7,-35.98,-15.75
684.176,-108.336,263.032,16.1,-35.21,-22.4
680.76,-90.768,274.256,17.43,-34.09,-26.95
683.2,-89.792,287.92,18.76,-32.83,-30.03
691.496,-81.984,294.752,20.09,-31.5,-32.69
688.568,-87.84,302.072,21.35,-30.1,-35.84
691.496,-93.696,306.464,22.61,-28.56,-39.69
706.624,-87.84,308.416,23.8,-26.81,-43.96
722.728,-87.352,306.464,24.92,-25.27,-48.65
742.736,-101.016,313.296,25.69,-23.94,-54.46
782.264,-113.216,332.328,26.04,-22.96,-60.41
836.92,-132.248,350.872,25.97,-22.61,-65.03
876.448,-145.912,363.072,25.69,-22.75,-67.9
919.392,-163.48,382.104,25.2,-23.31,-69.3
958.432,-164.456,401.624,24.64,-24.22,-70.42
1004.304,-159.576,409.432,23.73,-25.48,-72.17
1029.68,-133.224,406.016,22.75,-26.95,-75.46
1040.416,-109.8,391.376,21.84,-28.7,-80.99
1053.592,-86.864,361.608,21.28,-30.38,-88.48
1076.528,-49.288,328.912,20.93,-32.13,-97.09
1087.752,0.488,272.792,20.86,-34.02,-105.35
1140.944,55.144,189.344,20.23,-36.54,-109.9
1213.656,17.08,144.936,18.34,-40.18,-107.59
1249.28,72.224,142.008,15.19,-43.89,-101.5
1260.016,69.784,152.744,12.32,-46.69,-92.4
1269.288,62.464,154.696,9.73,-48.23,-81.41
1242.936,92.72,147.376,7.77,-48.58,-70.28
1200.48,121.512,141.032,6.58,-47.74,-61.6
1175.104,136.152,123.952,5.81,-45.85,-56.91
1146.312,136.64,101.016,5.11,-43.26,-56.28
1119.96,142.496,77.104,4.13,-39.9,-58.73
1094.584,154.696,69.784,3.08,-35.84,-62.79
1074.088,169.824,73.2,1.96,-31.15,-66.99
1052.616,187.392,69.784,1.05,-25.83,-69.58
1026.264,198.128,63.44,0.21,-19.88,-69.65
1001.864,203.008,56.12,-0.63,-13.51,-66.92
982.344,212.28,46.36,-1.54,-6.86,-61.32
973.56,244.0,47.336,-2.38,-0.07,-53.2
