acc_x[mg],acc_y[mg],acc_z[mg],gyro_x[dps],gyro_y[dps],gyro_z[dps]
501.664,816.912,-280.6,0.84,1.54,-1.47
498.248,819.352,-283.528,0.49,1.54,-0.91
496.296,819.84,-283.04,0.21,1.61,-0.14
494.832,823.744,-279.624,0.0,1.61,0.63
502.152,827.16,-281.088,-0.07,1.61,1.26
503.128,834.48,-280.112,-0.14,1.33,1.68
505.08,838.384,-277.184,-0.14,1.05,2.03
500.2,840.336,-274.256,0.07,0.84,2.17
494.832,842.776,-273.768,0.14,0.63,2.24
494.344,848.144,-278.648,0.35,0.7,2.38
493.368,843.752,-277.184,0.49,0.84,2.45
489.952,841.312,-276.208,0.56,0.98,2.45
485.56,835.456,-272.792,0.63,1.19,2.31
479.704,831.064,-277.672,0.49,1.47,1.96
474.824,825.208,-277.184,0.35,1.68,1.54
472.872,820.816,-276.696,0.21,1.96,1.19
478.24,827.16,-279.624,0.14,2.17,0.63
482.144,826.184,-279.136,0.07,2.24,-0.14
490.928,830.088,-277.672,0.07,2.31,-1.05
493.856,830.088,-277.672,0.14,2.31,-1.68
497.76,829.112,-276.696,0.28,2.24,-1.96
499.712,829.6,-281.088,0.42,2.17,-1.89
500.688,822.768,-283.528,0.42,2.1,-1.47
498.736,818.864,-276.208,0.42,2.17,-0.56
498.736,817.888,-279.624,0.42,2.17,0.56
497.272,813.984,-284.992,0.49,2.17,1.4
498.736,810.08,-278.648,0.42,2.17,1.68
498.736,812.52,-279.136,0.28,2.17,1.68
501.176,813.008,-281.576,0.21,2.17,1.26
501.664,815.936,-281.576,0.14,2.17,0.56
506.056,815.936,-282.552,0.14,2.1,-0.21
510.936,819.84,-284.016,0.14,2.03,-0.77
512.4,826.672,-279.136,0.21,1.96,-0.91
515.328,831.064,-281.088,0.28,1.89,-0.28
514.352,826.672,-286.456,0.56,1.82,0.56
514.84,826.184,-276.696,0.63,1.75,1.82
517.768,832.528,-277.672,0.84,1.68,3.22
514.352,831.552,-279.624,0.98,1.54,4.34
507.52,829.112,-282.064,1.12,1.4,4.97
502.152,821.304,-286.456,1.19,1.4,4.97
495.32,818.864,-287.92,1.26,1.47,4.48
494.832,815.936,-288.408,1.33,1.61,3.64
501.664,812.52,-284.992,1.33,1.68,2.45
506.056,814.472,-281.088,1.26,1.61,1.4
509.96,818.864,-284.016,1.19,1.47,0.49
511.424,820.328,-287.92,1.12,1.26,-0.14
512.888,822.768,-284.504,1.19,1.19,-0.42
511.912,822.768,-279.624,1.19,1.05,0.14
508.496,822.28,-280.6,1.19,1.12,1.26
508.496,820.328,-283.528,1.12,1.19,2.52
504.104,817.4,-286.456,1.05,1.26,3.5
501.176,816.912,-287.432,0.98,1.19,3.99
497.272,814.96,-287.432,0.91,1.19,4.2
494.344,813.496,-288.408,0.77,1.19,3.99
493.368,810.08,-285.968,0.77,1.19,3.43
494.344,813.496,-287.432,0.7,1.19,2.66
495.808,811.544,-286.456,0.63,1.19,1.68
504.592,818.376,-284.504,0.63,1.12,0.63
512.4,821.792,-283.528,0.63,0.98,-0.35
510.936,823.744,-276.696,0.7,0.77,-0.84
508.008,825.208,-275.72,0.77,0.63,-0.56
511.424,826.672,-279.624,0.7,0.56,0.0
515.328,833.504,-279.624,0.63,0.56,0.56
520.696,834.48,-278.648,0.63,0.56,0.91
520.696,836.432,-283.528,0.56,0.49,0.91
520.208,836.92,-284.992,0.49,0.35,0.7
516.304,835.944,-283.528,0.42,0.21,0.56
513.864,834.48,-283.04,0.42,0.07,0.49
515.328,834.968,-284.016,0.35,-0.07,0.35
517.768,830.088,-283.04,0.28,-0.21,0.0
520.208,827.16,-281.088,0.21,-0.28,-0.35
520.696,826.184,-282.064,-0.07,-0.49,-0.56
520.208,824.72,-283.04,-0.28,-0.56,-0.49
517.768,824.72,-283.528,-0.56,-0.7,-0.21
517.28,821.304,-284.504,-0.84,-0.77,-0.07
518.256,818.376,-286.456,-1.05,-0.91,-0.14
519.72,818.864,-289.384,-1.47,-1.05,-0.28
513.376,813.984,-293.288,-1.68,-1.19,-0.49
506.056,812.032,-294.264,-1.89,-1.19,-0.28
500.688,810.08,-294.752,-2.17,-1.12,0.21
502.64,805.688,-293.288,-2.38,-1.05,0.77
507.52,805.2,-291.336,-2.66,-1.05,1.12
509.96,807.152,-286.456,-2.8,-1.12,1.26
515.816,814.472,-282.064,-3.01,-1.33,1.33
513.864,818.864,-279.136,-3.08,-1.61,1.19
515.328,826.184,-274.256,-3.01,-1.82,0.91
516.304,834.48,-275.232,-2.8,-1.96,0.56
516.792,835.456,-269.864,-2.59,-2.03,0.35
513.376,837.408,-268.888,-2.38,-1.96,0.35
508.984,835.944,-270.352,-2.17,-1.89,0.49
506.544,839.848,-272.304,-1.89,-1.75,0.84
499.224,832.04,-270.352,-1.68,-1.68,1.12
493.856,831.552,-269.376,-1.54,-1.61,1.33
490.44,829.112,-270.84,-1.4,-1.54,1.26
489.952,830.576,-276.208,-1.33,-1.54,0.7
486.048,828.624,-275.72,-1.26,-1.54,-0.42
489.952,831.064,-275.232,-1.19,-1.54,-1.61
492.88,836.432,-273.768,-1.12,-1.68,-2.59
493.856,841.312,-270.84,-1.05,-1.82,-3.08
494.832,852.048,-268.4,-0.98,-1.89,-3.08
498.736,859.368,-265.472,-0.91,-1.96,-2.87
498.248,866.2,-262.056,-0.84,-2.03,-2.73
496.296,868.152,-258.64,-0.77,-2.1,-2.73
491.904,867.664,-264.984,-0.84,-2.1,-2.87
488.0,865.224,-266.448,-0.98,-2.1,-3.15
484.096,863.272,-263.52,-1.12,-2.1,-3.64
483.12,862.296,-260.104,-1.4,-2.03,-4.2
486.048,854.0,-261.568,-1.75,-2.03,-4.9
487.024,848.632,-270.352,-2.31,-2.03,-5.81
478.728,840.336,-263.032,-2.94,-1.96,-6.93
478.728,841.312,-264.984,-3.64,-1.89,-7.77
483.12,840.336,-269.864,-4.41,-1.82,-8.33
486.048,837.408,-262.056,-5.11,-1.82,-8.68
490.928,838.384,-259.128,-5.88,-1.89,-8.75
494.832,838.872,-260.104,-6.51,-2.1,-8.61
494.344,845.216,-257.664,-7.07,-2.31,-8.19
490.44,846.192,-252.784,-7.56,-2.45,-7.28
489.952,846.68,-250.344,-8.05,-2.59,-6.16
479.216,848.144,-250.832,-8.4,-2.66,-4.83
471.408,847.168,-245.952,-8.75,-2.66,-3.64
467.992,848.144,-241.072,-9.03,-2.52,-2.8
462.624,854.0,-233.752,-9.45,-2.45,-2.45
459.208,863.76,-227.408,-9.73,-2.52,-2.73
456.768,873.52,-227.408,-10.01,-2.45,-3.71
443.592,879.376,-219.6,-10.15,-2.45,-4.97
436.272,893.528,-208.376,-10.08,-2.31,-6.3
428.952,896.944,-195.688,-10.01,-2.1,-7.49
422.608,900.848,-182.512,-9.87,-1.75,-8.68
418.216,898.408,-175.192,-9.8,-1.47,-10.01
418.704,902.312,-169.336,-9.73,-1.26,-11.76
409.92,905.24,-158.6,-9.66,-1.05,-14.14
390.888,916.952,-146.4,-9.52,-0.77,-16.73
366.976,917.928,-127.368,-9.38,-0.35,-19.04
354.288,926.712,-116.144,-9.31,0.35,-21.21
369.904,938.912,-128.832,-9.24,1.12,-23.87
365.024,915.976,-108.336,-9.17,1.75,-26.74
382.592,932.08,-80.032,-9.31,2.31,-29.4
407.48,944.28,-66.368,-9.45,2.66,-31.85
417.24,946.72,-58.072,-9.73,2.8,-33.6
421.632,952.088,-50.752,-10.08,2.8,-34.65
416.752,955.992,-56.608,-10.43,2.8,-34.65
402.112,950.136,-51.728,-10.78,3.01,-33.67
394.304,944.768,-50.264,-11.13,3.29,-31.78
391.864,937.936,-59.048,-11.55,3.57,-29.75
387.472,923.296,-65.88,-11.9,3.92,-28.28
375.76,915.0,-65.88,-12.25,4.2,-27.51
376.736,918.904,-81.496,-12.46,4.48,-27.79
383.568,905.728,-91.256,-12.6,4.69,-29.12
392.84,892.064,-88.328,-12.74,4.69,-31.29
393.816,884.256,-103.944,-12.88,4.69,-33.74
391.864,872.544,-133.224,-13.02,4.76,-34.93
388.448,861.808,-141.52,-13.09,4.83,-33.88
388.448,849.12,-154.208,-13.16,5.04,-30.24
382.104,839.36,-170.8,-13.09,5.11,-24.71
376.248,836.432,-189.832,-12.81,5.18,-18.9
381.616,861.32,-214.72,-12.32,5.04,-14.14
378.688,880.84,-236.192,-11.41,4.69,-10.29
359.168,889.624,-234.24,-9.94,4.41,-6.65
351.36,897.432,-225.944,-7.98,4.27,-3.71
358.68,914.024,-228.872,-5.81,4.13,-1.68
359.656,912.072,-232.776,-3.08,3.78,-0.56
357.216,913.536,-232.288,-0.28,3.29,0.28
349.896,924.76,-239.608,2.73,2.8,1.26
342.576,943.792,-237.168,6.09,2.31,2.73
350.384,957.944,-228.872,9.87,1.82,4.41
346.48,971.12,-221.064,14.0,1.26,6.23
331.352,966.728,-214.72,18.41,0.7,7.98
319.152,965.264,-219.6,22.82,0.42,9.73
313.784,975.024,-226.92,27.37,0.35,11.06
298.168,983.32,-228.384,31.92,0.35,11.76
289.384,995.52,-223.992,36.54,0.63,11.69
284.016,1004.304,-221.064,41.23,1.12,10.99
285.48,1003.328,-211.304,45.85,1.82,9.66
292.8,995.52,-215.208,50.33,2.52,8.26
305.488,994.544,-226.432,54.46,3.01,7.21
321.592,1003.816,-238.144,58.38,3.5,6.86
324.032,999.424,-246.928,62.3,3.85,6.93
325.008,996.984,-244.488,66.01,4.41,7.42
330.376,1000.888,-262.056,69.65,4.9,8.05
329.4,993.568,-274.256,73.22,5.53,8.89
329.888,989.176,-270.352,76.51,6.23,10.43
323.544,986.736,-270.84,79.73,7.21,13.23
321.104,981.368,-283.528,82.6,8.19,16.87
324.032,979.904,-297.192,85.61,9.17,20.09
340.624,977.952,-306.464,88.34,10.08,22.05
361.608,968.192,-316.224,90.86,10.64,22.68
383.08,969.656,-332.328,93.31,10.99,23.24
391.376,984.784,-344.528,95.55,11.06,24.22
411.384,1002.84,-368.928,97.93,11.27,24.99
427.976,1002.352,-393.328,100.31,11.55,24.99
439.2,1000.888,-408.456,102.62,11.9,24.36
449.936,998.448,-435.296,104.93,12.39,23.38
468.48,984.296,-459.208,107.03,12.95,21.84
506.544,977.464,-476.288,109.06,13.37,19.25
531.92,969.656,-513.864,110.81,13.51,16.03
540.704,966.24,-561.2,112.14,13.44,13.37
545.584,943.304,-604.632,112.7,13.3,10.78
551.44,938.424,-683.2,112.63,12.81,7.21
500.688,954.04,-750.056,112.21,12.88,1.61
438.224,926.712,-809.592,111.51,14.42,-6.3
419.68,927.688,-886.208,109.2,16.94,-17.22
418.704,962.336,-961.848,105.56,19.95,-32.9
390.4,1047.248,-1006.744,101.15,23.24,-52.15
363.072,1139.48,-1062.864,96.67,27.09,-71.75
375.76,1234.64,-1145.824,92.33,31.29,-89.81
426.024,1317.112,-1243.424,88.2,35.21,-106.61
483.608,1381.04,-1314.672,84.14,38.29,-121.8
575.352,1484.496,-1391.288,80.29,40.25,-135.38
655.384,1616.256,-1488.4,77.07,40.67,-147.07
726.632,1692.872,-1554.28,74.97,39.69,-156.8
768.112,1687.016,-1620.648,73.15,37.52,-165.9
826.184,1633.824,-1705.56,70.63,34.44,-177.03
915.976,1580.632,-1778.76,66.92,30.31,-193.13
1026.752,1534.272,-1832.928,62.23,24.71,-214.2
1148.752,1498.648,-1877.336,56.91,17.57,-236.95
1231.712,1460.584,-1899.296,51.73,9.03,-257.39
1329.312,1431.304,-1960.784,46.97,-0.42,-273.14
1459.12,1381.04,-1952.0,42.98,-11.06,-282.94
1582.096,1336.144,-1929.064,39.69,-22.96,-285.18
1703.608,1271.728,-1932.48,37.31,-36.12,-278.04
1777.784,1189.744,-1865.136,35.63,-50.19,-261.73
1856.352,1084.336,-1775.832,34.09,-65.03,-238.98
1915.4,951.6,-1683.112,32.48,-80.85,-214.13
1929.064,793.976,-1522.072,30.17,-97.79,-191.59
1913.936,650.504,-1380.064,27.02,-115.22,-173.81
1871.968,549.488,-1247.328,23.1,-132.79,-160.93
1785.592,406.992,-1098.976,18.76,-150.15,-150.78
1681.648,285.968,-939.888,13.58,-166.6,-140.28
1606.496,164.456,-801.784,7.56,-182.07,-129.36
1544.52,44.896,-671.0,0.63,-197.12,-119.84
1475.712,-47.824,-564.128,-7.21,-212.03,-113.75
1406.416,-133.712,-418.216,-15.47,-226.8,-111.65
1346.88,-194.224,-272.792,-23.66,-241.57,-112.42
1276.608,-273.28,-193.736,-31.43,-256.27,-115.5
1147.776,-331.84,-71.736,-38.64,-270.41,-118.37
1008.696,-398.696,-21.96,-45.22,-283.01,-119.98
878.888,-488.488,1.952,-51.38,-293.86,-120.05
752.008,-638.304,97.112,-57.68,-302.82,-118.93
663.192,-775.92,157.136,-64.89,-310.17,-116.9
586.088,-856.928,183.976,-72.94,-316.05,-112.77
429.44,-856.44,257.176,-80.99,-320.39,-104.86
307.44,-784.216,308.416,-88.34,-322.56,-94.29
196.664,-754.936,378.688,-94.29,-323.33,-85.89
126.392,-721.752,493.368,-99.05,-323.33,-85.12
121.512,-714.432,535.824,-102.41,-323.33,-95.69
141.52,-728.584,552.904,-104.16,-323.89,-116.06
72.712,-744.688,641.72,-104.23,-325.08,-139.93
30.256,-732.488,699.304,-102.55,-325.57,-162.12
57.096,-721.264,699.792,-99.4,-325.57,-182.42
155.184,-762.256,679.784,-95.06,-325.71,-202.23
196.176,-786.168,699.792,-90.37,-326.2,-219.94
216.184,-774.456,707.6,-85.75,-325.99,-231.0
208.864,-748.592,701.744,-81.34,-324.73,-232.75
148.84,-722.24,730.536,-77.56,-322.07,-225.54
89.792,-721.264,780.8,-75.25,-317.73,-213.5
111.264,-740.784,742.248,-75.18,-312.48,-203.7
74.664,-785.192,794.952,-77.56,-307.44,-198.1
-24.4,-837.896,926.224,-82.39,-302.05,-191.17
-84.424,-810.568,1062.376,-89.18,-295.89,-178.78
-85.888,-783.728,1161.44,-97.37,-289.73,-163.38
4.88,-703.208,1223.904,-106.47,-284.48,-147.63
64.416,-638.304,1284.416,-115.99,-280.91,-131.74
136.64,-624.152,1336.144,-125.86,-278.53,-114.03
173.728,-660.264,1454.24,-136.57,-276.85,-92.82
98.088,-663.68,1519.632,-148.4,-274.4,-66.08
36.112,-614.392,1562.088,-161.14,-269.92,-35.56
12.688,-542.656,1649.928,-173.95,-263.48,-8.33
32.208,-467.992,1690.432,-185.85,-255.85,9.66
30.256,-447.984,1742.16,-196.49,-247.52,18.69
31.72,-506.056,1826.096,-206.43,-238.56,21.91
69.784,-552.904,1836.832,-216.09,-229.18,19.53
80.52,-481.168,1714.832,-224.84,-219.73,12.25
46.848,-463.112,1704.096,-231.21,-209.72,4.9
137.128,-309.392,1728.496,-235.2,-199.15,0.35
223.992,-359.656,1810.48,-236.11,-189.21,1.54
193.736,-349.896,1758.264,-236.53,-180.11,7.07
251.808,-471.408,1755.336,-236.74,-171.43,11.83
237.168,-565.104,1708.976,-238.14,-164.01,11.83
175.192,-614.88,1654.32,-240.31,-157.22,8.12
88.328,-625.616,1616.256,-242.76,-150.78,1.47
10.248,-675.88,1555.256,-245.0,-144.9,-10.78
-70.76,-678.808,1495.72,-247.73,-140.0,-29.68
-142.984,-721.264,1373.72,-250.39,-136.22,-52.85
-192.272,-758.352,1467.904,-253.12,-133.21,-72.8
-177.632,-737.368,1426.424,-255.64,-130.83,-83.79
-216.672,-738.344,1480.104,-257.74,-129.01,-86.87
-279.136,-828.136,1401.536,-260.4,-126.98,-86.03
-368.928,-892.064,1413.736,-265.3,-124.46,-87.64
-341.6,-930.616,1296.128,-272.37,-122.15,-97.93
-219.6,-1082.384,1280.512,-281.12,-122.01,-117.95
-106.872,-1214.144,1314.184,-291.76,-125.02,-140.7
-42.456,-1354.2,1325.896,-303.52,-130.76,-157.92
6.832,-1514.752,1261.48,-316.33,-138.18,-168.14
39.528,-1610.4,1135.576,-330.75,-146.86,-176.19
179.096,-1667.496,1014.064,-345.87,-157.22,-189.0
451.888,-1726.056,768.6,-360.5,-171.01,-209.51
648.064,-1873.432,528.504,-373.59,-188.86,-227.64
830.576,-1943.704,405.04,-385.0,-208.6,-229.67
1034.56,-1904.176,135.176,-393.26,-228.48,-215.95
1319.552,-1777.784,-83.936,-397.25,-248.22,-196.0
1547.448,-1519.632,-484.096,-395.71,-268.38,-178.29
1751.432,-1311.744,-989.664,-387.45,-288.26,-165.83
1956.392,-918.416,-1564.528,-372.33,-307.72,-161.0
2190.632,-629.52,-2194.048,-348.11,-326.9,-165.97
2534.672,-284.992,-2627.88,-314.79,-346.36,-177.87
2711.328,288.896,-2957.28,-270.97,-365.82,-186.41
2949.96,768.112,-3326.208,-215.11,-382.97,-184.17
3235.44,1348.344,-3529.216,-149.38,-398.16,-176.26
3553.616,1892.464,-3686.84,-73.78,-412.3,-163.45
3768.336,2559.56,-3788.344,10.57,-425.18,-136.36
3834.216,3074.888,-4014.776,102.13,-436.31,-91.56
3402.336,3288.632,-4260.24,196.77,-444.5,-36.47
2530.28,3397.456,-4546.696,290.08,-446.11,20.02
1359.08,3960.608,-4735.552,382.2,-438.41,65.24
257.176,4485.208,-5136.2,477.96,-420.28,75.95
-373.808,5624.688,-5211.352,582.19,-392.21,24.5
-142.008,6842.248,-5167.92,702.52,-354.97,-81.69
1105.808,8804.984,-4391.024,841.12,-312.62,-183.61
2760.128,10484.192,-3283.752,998.2,-276.92,-220.85
4167.52,12559.656,-1989.088,1172.57,-266.07,-183.89
5548.072,14157.856,-761.28,1344.07,-281.26,-98.35
6869.576,15454.96,474.336,1504.09,-330.12,-17.43
7749.44,14932.8,953.064,1637.23,-405.93,39.69
6315.696,12872.952,-34.16,1719.55,-490.77,85.89
6460.632,2859.68,2004.704,1271.48,-554.82,810.25
2153.544,3391.112,-1511.336,202.58,-467.53,1914.71
-1626.992,8356.512,-2250.168,185.36,-823.97,596.4
422.608,9486.72,-5592.968,366.17,-999.81,-773.43
237.168,5557.344,-5823.792,685.23,-865.34,-1123.5
1596.736,4248.04,-6556.768,814.24,-627.55,-757.96
3064.64,4015.264,-6120.496,817.74,-458.29,-211.47
2370.704,4842.912,-5685.688,770.63,-385.42,119.7
1566.968,5147.912,-5039.088,715.33,-348.39,112.63
1423.496,5363.12,-4233.4,675.71,-301.07,-89.67
2046.672,5093.744,-3835.192,651.0,-233.59,-271.6
2215.52,4511.072,-3853.248,631.4,-157.85,-326.97
2043.744,4615.992,-3965.0,611.94,-84.56,-276.99
2144.272,4998.584,-3932.792,599.41,-21.77,-210.0
2380.952,5578.816,-3635.112,599.2,28.14,-178.5
2588.84,5969.704,-3173.952,612.01,68.95,-159.39
2719.136,5959.944,-2777.208,632.66,101.99,-123.83
2556.144,5723.752,-2531.744,654.64,126.21,-78.75
2162.816,5379.224,-2363.384,673.47,144.41,-39.76
1813.896,4811.68,-2342.4,685.93,160.09,-19.88
1703.12,4209.0,-2421.456,688.87,175.63,-29.12
1998.848,3843.488,-2407.304,681.31,191.8,-58.03
2278.96,3428.2,-2329.712,665.21,206.78,-83.58
2123.776,2905.064,-2218.936,641.62,220.57,-87.57
1717.76,2389.736,-2018.856,612.01,234.64,-69.3
1275.632,1998.36,-1742.648,578.69,249.41,-42.28
841.312,1768.024,-1542.568,544.53,264.11,-17.64
534.36,1643.096,-1337.608,510.93,278.46,-15.89
299.144,1483.52,-1156.56,476.56,293.02,-54.81
273.28,1300.52,-986.736,438.34,309.68,-126.28
520.208,1256.112,-812.032,395.08,327.25,-214.83
843.752,1277.584,-611.464,347.9,342.51,-301.28
1178.52,1112.64,-381.616,298.69,353.71,-364.49
1430.328,953.552,-454.328,247.73,358.68,-392.35
1453.752,813.496,-329.888,198.1,357.35,-385.21
1708.0,683.688,-447.008,151.41,350.21,-360.85
1810.968,648.552,-496.296,109.41,335.65,-327.88
1691.408,743.712,-435.296,74.55,316.4,-278.74
1700.192,785.68,-425.048,48.16,294.28,-226.38
1612.352,806.664,-318.664,29.05,268.8,-185.5
1392.264,826.672,-264.496,15.68,242.06,-156.03
1335.656,756.4,-250.832,6.3,215.95,-139.58
1301.008,631.472,-202.52,-1.05,189.49,-131.95
1127.28,639.28,-193.736,-6.58,163.87,-115.78
1023.824,596.824,-179.584,-9.59,140.35,-89.53
909.632,588.528,-134.2,-10.57,118.16,-65.73
732.976,606.584,-94.672,-10.08,97.65,-51.38
623.664,608.536,-111.264,-8.4,79.17,-50.68
610.976,538.752,-44.408,-6.23,62.37,-62.93
543.144,495.808,32.208,-4.06,46.76,-76.58
463.6,455.792,56.12,-1.68,33.39,-81.69
373.808,435.296,86.864,0.91,22.68,-79.52
353.312,412.36,101.992,3.64,14.28,-77.28
345.992,384.544,88.328,6.3,7.35,-78.4
283.04,367.464,88.816,8.96,2.03,-81.06
181.048,289.384,138.104,11.27,-1.12,-84.0
155.672,232.288,170.312,13.02,-2.1,-88.27
54.656,201.056,242.536,14.42,-1.26,-94.43
-36.6,142.984,340.136,15.75,1.82,-104.09
-52.704,162.016,414.8,16.8,7.0,-115.85
-46.36,167.872,477.264,19.11,13.72,-125.51
13.176,193.736,546.072,20.72,21.28,-130.55
89.792,257.664,586.576,22.89,28.91,-131.74
184.952,276.696,632.936,26.25,36.26,-131.88
198.128,273.768,788.608,29.47,42.98,-132.44
163.48,312.32,906.704,31.92,50.12,-130.27
237.168,391.864,976.976,34.51,57.82,-126.77
353.8,522.648,1001.376,37.38,64.47,-124.88
540.216,686.128,1012.6,40.46,69.44,-124.88
698.328,808.128,1010.16,44.31,71.96,-126.21
756.4,877.912,1014.552,48.51,72.59,-125.79
717.848,853.512,985.272,52.5,72.45,-120.61
677.832,745.176,973.56,55.02,72.31,-112.56
662.216,685.152,934.52,55.51,71.82,-105.21
594.384,851.56,884.256,53.69,70.49,-103.74
676.368,891.088,897.432,51.52,68.11,-113.96
617.32,1101.416,843.264,49.77,65.45,-120.12
507.032,1217.072,828.624,49.0,62.79,-127.82
469.944,1292.224,883.28,45.57,59.36,-132.09
514.84,1111.664,857.416,38.22,54.74,-120.12
606.096,1125.816,706.136,29.47,48.44,-108.43
621.224,1143.872,653.92,24.5,41.23,-107.31
632.448,1142.408,633.424,22.75,34.02,-109.55
647.576,1155.096,590.968,22.61,26.95,-111.3
635.864,1134.112,570.472,23.1,19.6,-111.09
558.272,1097.512,554.368,23.24,12.04,-108.36
447.496,1036.024,511.424,22.82,4.34,-102.97
428.952,1028.704,481.168,21.84,-3.5,-96.95
414.312,968.68,447.008,20.86,-11.34,-88.55
297.192,865.224,454.816,18.97,-18.2,-74.55
273.768,836.92,421.144,15.89,-23.87,-56.0
264.008,796.416,403.576,12.39,-29.4,-35.07
227.896,748.592,427.0,8.61,-34.65,-15.19
182.024,688.568,419.192,4.48,-39.48,0.49
147.864,650.016,414.312,-0.07,-43.47,11.06
128.832,610.976,400.648,-4.97,-47.18,15.68
73.688,555.344,376.736,-10.57,-50.89,13.79
116.632,592.92,415.288,-16.8,-54.74,5.11
94.184,613.904,362.096,-22.75,-59.22,-9.17
81.984,543.632,348.92,-28.35,-63.56,-26.67
151.28,499.224,362.584,-34.16,-67.55,-45.5
239.12,480.192,329.4,-39.9,-71.75,-62.72
286.456,446.032,308.904,-45.5,-76.02,-74.76
264.984,407.48,400.16,-51.59,-80.22,-81.76
212.28,471.408,413.336,-57.96,-84.28,-86.66
226.92,482.144,454.816,-63.98,-88.13,-90.86
205.448,572.424,396.256,-69.65,-91.98,-93.45
180.072,761.28,408.456,-74.34,-95.27,-93.66
218.624,779.824,448.472,-77.35,-98.07,-93.45
270.352,932.568,411.872,-79.73,-100.31,-93.52
373.32,1146.8,406.504,-80.29,-102.13,-93.38
819.352,1502.064,340.624,-77.49,-105.49,-93.8
257.176,1527.44,494.344,-69.72,-112.0,-95.13
94.184,1406.904,839.36,-61.11,-112.49,-92.54
334.768,1539.152,694.912,-52.08,-110.39,-84.77
476.288,1642.12,509.472,-41.3,-108.92,-75.18
508.008,1481.08,467.016,-29.96,-108.78,-64.89
339.648,1205.848,545.584,-21.63,-109.48,-53.62
274.256,1282.952,533.384,-16.52,-109.34,-39.69
238.632,1364.936,557.296,-10.64,-109.06,-24.78
181.048,1486.936,569.008,-3.01,-108.85,-11.97
152.256,1449.36,538.264,6.93,-108.64,-0.98
94.672,1422.52,453.352,17.57,-108.78,8.61
57.096,1304.912,357.704,28.63,-108.78,17.01
24.888,1203.408,295.728,39.2,-108.71,25.06
39.528,1009.672,200.08,48.44,-108.64,31.57
39.04,847.168,102.48,55.65,-108.43,35.42
8.296,815.448,55.632,61.18,-107.8,35.49
4.392,842.776,44.896,66.22,-106.89,29.19
56.608,972.584,46.848,72.1,-107.03,14.63
75.152,1042.856,68.808,80.08,-108.85,-7.28
80.032,991.128,84.912,89.39,-111.51,-29.4
139.568,948.184,99.552,98.7,-113.82,-44.52
156.16,896.456,106.872,107.17,-115.64,-48.65
168.36,847.168,122.976,114.31,-116.76,-41.93
184.464,792.512,131.272,119.91,-117.25,-27.09
189.344,696.376,98.576,123.41,-117.88,-8.96
194.712,590.48,62.952,124.6,-118.65,8.61
193.736,484.096,50.264,123.13,-119.77,22.61
218.136,414.8,42.944,119.35,-121.17,31.08
236.192,371.368,21.96,113.89,-123.13,33.81
242.536,352.824,4.392,107.38,-125.02,32.48
259.128,393.328,-20.496,100.1,-126.56,29.19
269.376,453.352,-66.368,92.68,-127.47,24.57
298.168,538.264,-99.064,85.26,-127.47,18.97
353.312,628.544,-119.56,78.12,-126.7,12.74
401.624,720.776,-104.432,71.4,-125.44,7.07
422.608,851.072,-104.432,65.03,-123.76,2.8
436.272,1015.528,-116.632,59.64,-121.31,0.35
445.544,1167.296,-88.816,55.37,-118.3,-1.68
474.824,1373.232,-40.504,52.5,-114.8,-5.11
572.424,1633.336,-30.744,51.94,-111.51,-10.08
690.032,1735.816,-16.104,53.9,-109.41,-16.52
798.856,1649.44,27.328,56.7,-108.78,-24.57
911.096,1549.888,32.208,58.52,-109.83,-33.81
976.976,1423.496,12.2,59.01,-112.21,-41.58
985.76,1273.68,26.352,58.1,-115.36,-42.98
959.896,1148.752,39.04,55.79,-118.51,-34.09
919.88,1059.448,49.288,52.43,-121.45,-15.26
857.904,951.6,66.856,48.16,-124.46,9.31
784.704,839.36,71.248,42.7,-127.54,34.23
702.72,721.752,87.84,35.77,-130.55,55.16
607.072,630.496,109.312,27.58,-133.49,69.79
510.936,558.76,112.728,18.34,-135.8,78.05
422.608,525.576,111.264,8.68,-137.34,81.9
349.408,506.056,109.8,-0.91,-137.83,83.3
307.928,489.464,77.104,-10.22,-137.55,82.88
289.384,508.984,22.936,-19.25,-136.71,80.99
257.664,553.392,-48.8,-27.44,-135.59,78.82
237.656,642.208,-131.76,-34.58,-134.12,77.91
205.936,741.272,-197.152,-40.11,-132.3,77.84
163.48,851.072,-232.776,-43.96,-130.13,78.4
131.76,960.384,-264.008,-46.2,-127.54,78.12
105.408,1052.616,-280.6,-46.83,-124.67,75.11
101.992,1155.584,-301.584,-46.13,-121.87,68.11
105.896,1242.448,-319.152,-44.03,-119.42,56.84
129.808,1312.72,-340.136,-40.81,-117.46,42.63
187.392,1319.064,-378.688,-36.89,-116.13,27.51
262.056,1282.464,-423.096,-33.18,-115.57,13.44
327.936,1232.2,-472.872,-30.24,-115.71,2.87
382.104,1204.384,-512.888,-28.21,-116.27,-1.82
433.832,1203.896,-552.416,-26.95,-117.11,-0.21
459.208,1212.192,-574.376,-26.25,-118.16,6.44
436.76,1221.952,-559.736,-25.48,-119.21,16.8
383.568,1260.992,-549.488,-24.99,-119.91,28.77
335.744,1280.024,-526.064,-24.36,-120.12,38.5
284.504,1286.368,-518.744,-23.66,-120.12,42.28
227.408,1276.608,-499.224,-23.03,-119.77,40.46
183.488,1252.208,-461.648,-22.26,-119.07,35.63
135.176,1197.552,-422.608,-21.56,-117.95,30.03
98.576,1134.6,-395.768,-21.07,-116.41,25.2
96.136,1079.456,-401.624,-20.93,-114.59,21.21
78.08,1003.816,-393.816,-21.35,-112.7,18.2
53.68,927.2,-367.952,-22.33,-110.6,17.22
37.576,877.424,-328.424,-23.8,-108.15,17.99
36.6,853.512,-301.096,-25.48,-105.77,18.34
20.984,839.848,-267.912,-26.88,-103.46,17.99
17.08,839.848,-242.048,-28.0,-101.08,17.78
18.056,825.208,-214.72,-28.63,-98.63,17.5
22.936,844.24,-204.472,-28.98,-96.25,17.08
26.84,861.32,-213.256,-28.84,-94.08,16.73
39.04,851.072,-191.296,-28.28,-91.98,15.82
58.072,858.88,-178.12,-27.44,-90.23,14.35
69.784,879.376,-169.824,-26.25,-88.69,13.37
64.904,885.232,-147.864,-24.5,-87.22,13.51
75.64,901.824,-124.44,-22.4,-85.68,14.14
102.968,903.776,-133.224,-20.16,-84.35,13.23
132.248,912.072,-146.888,-17.99,-83.37,9.24
157.136,925.248,-150.792,-15.82,-82.81,2.87
182.512,931.592,-142.984,-13.58,-82.46,-4.48
183.0,933.056,-121.512,-11.27,-82.11,-10.43
181.536,917.928,-111.752,-8.89,-81.48,-13.16
187.88,890.6,-112.24,-6.86,-80.5,-11.55
212.768,858.392,-141.52,-5.39,-79.31,-6.3
230.824,820.816,-166.896,-4.48,-78.26,1.26
237.656,785.68,-178.12,-4.41,-77.49,9.24
245.464,790.072,-193.736,-4.9,-77.0,16.1
227.896,817.4,-190.808,-5.46,-76.72,21.0
193.736,846.68,-169.824,-5.81,-76.44,24.57
184.952,871.568,-159.576,-5.67,-75.88,27.44
163.968,851.072,-128.832,-5.25,-75.46,29.61
149.328,777.872,-84.912,-5.04,-75.11,30.59
179.096,698.816,-72.224,-5.6,-75.04,29.19
207.888,631.96,-66.368,-6.93,-75.6,25.62
197.152,630.984,-80.52,-8.75,-76.65,22.47
176.168,683.688,-126.88,-10.29,-77.42,22.75
160.064,809.104,-194.224,-10.92,-77.63,28.07
85.4,987.224,-264.496,-10.15,-77.21,38.08
-40.992,1156.072,-301.584,-7.49,-75.74,50.54
-123.952,1281.488,-305.0,-3.15,-72.94,61.11
-118.584,1359.08,-319.152,2.31,-69.72,64.96
-75.152,1375.672,-332.328,8.12,-67.34,59.36
-3.416,1337.12,-334.28,13.51,-66.08,44.45
75.152,1298.08,-314.272,17.99,-66.15,22.05
133.712,1271.24,-314.272,21.77,-67.13,-4.34
174.216,1234.152,-307.44,25.13,-68.53,-29.68
214.72,1207.312,-292.312,28.07,-69.72,-49.14
237.168,1148.752,-275.232,30.38,-70.56,-60.97
248.392,1082.872,-239.12,31.71,-70.77,-64.75
272.304,999.424,-190.808,31.78,-70.42,-61.74
305.488,905.728,-99.064,30.52,-69.79,-54.39
312.32,846.192,-33.672,27.93,-69.09,-44.24
304.512,818.864,9.272,24.57,-67.97,-31.78
291.336,822.28,36.112,20.58,-66.29,-17.71
264.984,862.784,52.216,16.45,-64.05,-2.8
219.6,904.752,15.128,12.46,-60.97,11.9
202.032,888.16,8.784,8.68,-57.05,23.1
208.376,850.096,-0.488,4.48,-52.64,29.96
221.064,835.456,-32.208,-0.28,-48.02,34.65
273.28,810.568,-47.824,-5.32,-43.47,38.71
345.016,789.096,-34.16,-10.5,-39.48,42.7
397.72,784.216,-18.056,-15.75,-36.05,47.32
454.816,792.024,0.0,-21.0,-33.18,52.92
480.68,835.944,0.488,-25.83,-30.73,59.29
475.8,918.904,-41.48,-29.75,-28.28,65.94
439.688,975.512,-67.344,-32.62,-25.27,72.87
434.32,1040.904,-90.768,-34.58,-21.56,79.38
463.112,1092.144,-108.824,-35.63,-17.57,85.33
474.336,1131.672,-110.776,-35.98,-13.58,91.0
467.992,1161.928,-124.928,-35.56,-9.66,96.53
418.704,1179.008,-140.056,-34.51,-5.32,101.57
354.776,1166.32,-147.376,-33.18,-0.28,105.49
312.808,1137.528,-163.968,-31.85,5.46,107.45
284.016,1110.2,-185.928,-30.66,11.55,107.52
258.152,1118.008,-213.744,-29.54,17.64,106.33
225.944,1140.456,-222.04,-27.93,23.73,104.44
216.672,1173.64,-234.728,-25.9,29.68,101.71
223.016,1210.24,-271.816,-23.31,35.28,98.07
207.888,1218.536,-281.576,-20.23,40.46,94.57
188.368,1237.08,-260.592,-17.01,45.43,91.0
217.648,1210.728,-285.968,-13.72,49.98,85.68
202.52,1190.72,-302.072,-10.78,53.55,78.26
148.84,1167.784,-330.864,-8.33,56.91,70.91
104.92,1146.312,-387.96,-6.44,60.41,65.03
68.808,1103.368,-414.8,-5.25,64.12,59.85
67.344,1054.568,-395.768,-4.97,67.69,53.27
88.328,1031.632,-385.032,-5.67,70.56,43.82
98.088,993.568,-406.016,-7.14,72.52,30.8
83.448,947.208,-434.808,-9.52,73.71,14.84
46.848,915.488,-438.224,-12.67,74.76,-2.59
11.224,901.824,-440.176,-16.24,75.81,-19.11
12.688,894.992,-414.312,-20.02,77.0,-33.18
30.256,894.504,-411.872,-23.73,77.84,-45.43
64.416,898.408,-396.744,-27.23,77.98,-56.0
102.968,877.424,-369.416,-30.52,77.49,-64.89
138.104,848.632,-364.536,-33.81,76.23,-71.61
170.8,843.264,-356.24,-37.17,74.27,-75.04
203.008,842.288,-340.624,-40.11,71.68,-75.11
229.36,830.088,-311.832,-42.63,68.39,-73.01
233.264,803.248,-293.776,-44.73,64.54,-70.42
234.24,800.32,-248.392,-46.27,60.41,-68.46
239.608,803.248,-207.888,-47.25,56.0,-67.97
239.12,810.568,-195.688,-47.6,51.45,-68.67
259.128,812.52,-169.824,-47.25,46.76,-69.02
281.576,340.136,429.928,-56.35,40.6,-66.43
299.632,976.976,-228.872,-94.92,30.94,-72.66
242.536,985.76,-195.688,-104.02,22.89,-66.29
273.768,1009.184,-39.04,-98.56,17.36,-51.45
254.736,1037.488,-100.04,-89.74,11.9,-36.4
223.504,1018.944,-149.816,-79.59,6.72,-23.45
189.832,996.008,-150.304,-69.02,1.96,-13.93
136.152,979.416,-188.368,-58.38,-2.38,-8.89
87.84,930.128,-205.448,-47.67,-5.95,-8.82
85.888,874.008,-208.864,-37.31,-8.96,-13.44
45.384,758.352,-123.464,-27.51,-11.62,-21.21
52.704,802.76,-217.16,-26.04,-11.13,-31.57
84.912,788.12,-203.008,-24.85,-10.71,-41.23
152.256,889.136,-233.264,-20.86,-11.69,-47.88
147.376,853.512,-136.152,-13.79,-13.02,-50.19
164.456,869.616,-151.768,-8.4,-12.95,-47.18
188.856,884.744,-196.176,-3.29,-12.46,-40.88
206.912,891.088,-193.736,3.36,-11.97,-33.95
196.664,866.688,-180.56,10.92,-11.48,-27.3
212.28,839.36,-143.472,19.04,-11.13,-19.04
224.48,862.296,-139.08,26.39,-11.34,-8.47
180.072,906.216,-186.416,32.69,-11.62,0.21
183.0,901.824,-140.544,40.39,-11.41,2.87
247.904,939.4,-112.24,47.25,-11.27,0.42
284.504,983.808,-137.128,53.27,-11.69,-2.8
306.464,936.96,-30.744,58.52,-12.11,-4.83
345.016,946.72,-55.144,61.25,-12.67,-6.3
352.824,904.264,-37.088,63.77,-13.44,-5.67
348.92,905.24,-44.896,65.17,-14.49,-1.47
366.976,905.728,-14.64,66.36,-15.4,5.95
387.472,1009.184,-69.296,67.62,-16.87,15.33
397.232,1086.776,-44.896,70.7,-18.62,25.48
463.112,1152.168,33.672,75.46,-20.86,34.37
498.736,1210.24,48.312,79.87,-24.57,40.32
497.272,1241.472,50.264,83.79,-28.49,44.38
484.584,1264.896,33.184,87.64,-32.06,47.88
467.016,1254.16,7.808,91.42,-35.07,51.87
460.672,1221.464,-6.832,94.01,-37.59,58.1
457.744,1189.744,-40.504,94.92,-39.27,70.84
424.56,1178.52,-78.08,95.06,-40.11,86.17
366.976,1156.56,-96.136,95.27,-39.97,92.68
313.784,1137.528,-111.264,95.41,-38.71,89.67
294.264,1112.152,-136.64,95.41,-36.75,81.55
299.632,1080.92,-141.52,95.34,-34.72,70.98
317.688,1054.568,-141.032,94.92,-32.76,60.62
337.208,1038.952,-144.448,93.94,-31.01,53.27
330.376,1025.288,-144.936,92.82,-29.26,51.24
325.496,1008.208,-156.648,91.84,-27.23,52.92
341.112,996.496,-179.584,91.28,-25.27,54.81
353.8,975.512,-196.664,90.65,-23.8,55.37
371.368,971.12,-193.736,89.6,-23.03,54.81
382.104,988.688,-200.568,88.41,-22.61,53.48
377.224,1000.4,-221.552,87.36,-22.33,51.1
363.072,991.128,-245.952,86.38,-21.91,47.32
340.136,971.12,-258.64,85.47,-21.21,42.77
316.712,942.328,-253.272,84.49,-20.16,39.13
312.808,921.832,-267.912,83.58,-19.04,37.38
307.928,916.464,-291.824,82.88,-17.92,37.45
299.632,916.952,-283.04,82.39,-16.87,38.36
325.008,929.64,-282.552,81.97,-15.89,38.78
361.12,945.744,-332.328,81.76,-15.12,37.66
392.84,972.584,-371.856,81.69,-14.63,35.77
425.536,979.904,-397.232,81.97,-14.21,34.44
444.08,996.008,-397.232,82.53,-13.72,34.44
457.256,1044.808,-446.032,83.72,-12.88,36.33
473.36,1083.848,-511.424,85.89,-12.04,39.69
450.912,1119.472,-542.656,89.04,-11.41,44.17
425.536,1165.344,-581.208,92.75,-10.92,49.0
396.744,1222.44,-646.112,96.88,-10.99,52.71
345.504,1294.176,-724.192,101.5,-11.13,53.13
327.448,1352.248,-835.944,106.26,-10.43,47.6
356.24,1357.128,-907.68,111.23,-9.24,33.74
379.664,1362.008,-997.472,115.36,-8.4,12.11
397.232,1374.696,-1084.824,118.3,-7.42,-14.49
403.576,1356.152,-1204.872,120.05,-6.09,-44.1
464.088,1183.888,-1085.8,119.21,-3.85,-73.15
554.368,1359.568,-1575.752,109.83,-0.49,-96.32
572.424,1345.904,-1542.568,105.21,1.19,-124.53
623.664,1375.184,-1612.84,103.04,2.38,-151.83
682.712,1327.36,-1744.112,100.31,3.15,-172.34
765.184,1240.984,-1774.368,96.74,3.15,-186.48
858.392,1140.456,-1769.976,91.91,1.75,-196.7
976.488,1059.936,-1791.936,85.96,-1.47,-205.45
1101.416,977.464,-1818.288,79.1,-6.65,-214.41
1240.984,900.36,-1851.472,71.47,-13.79,-223.23
1361.032,831.552,-1910.52,63.7,-22.61,-229.53
1443.504,830.088,-1897.344,56.21,-32.55,-229.67
1546.472,816.424,-1899.784,49.7,-43.4,-222.81
1659.2,755.424,-1904.176,44.17,-55.51,-211.68
1753.872,659.288,-1879.288,38.99,-68.81,-199.5
1817.8,584.624,-1815.36,33.81,-83.16,-188.02
1879.776,531.92,-1774.856,28.7,-98.21,-178.29
1925.648,489.952,-1723.128,23.87,-113.89,-170.94
1898.32,436.76,-1595.272,19.6,-129.78,-165.2
1886.12,362.096,-1467.904,15.61,-145.39,-160.58
1902.224,262.056,-1381.04,11.76,-161.0,-157.57
1874.896,145.424,-1249.768,7.56,-176.82,-155.19
1810.968,80.52,-1121.424,3.08,-191.87,-151.9
1766.56,20.984,-1016.992,-1.33,-206.08,-147.21
1677.744,-36.112,-893.528,-5.6,-219.45,-141.12
1596.248,-85.888,-780.8,-9.73,-231.7,-134.12
1520.12,-145.424,-716.384,-13.65,-243.25,-127.47
1405.928,-198.616,-593.408,-17.5,-253.89,-121.1
1272.704,-211.304,-491.904,-21.14,-263.62,-115.43
1112.64,-243.024,-390.888,-23.94,-272.37,-111.93
973.072,-284.016,-275.232,-26.46,-280.07,-111.93
904.264,-347.456,-226.92,-28.7,-287.07,-116.97
855.464,-403.088,-191.296,-30.59,-293.93,-125.44
774.456,-425.536,-122.488,-31.99,-300.44,-132.65
674.904,-450.424,-30.256,-32.55,-306.11,-134.96
617.808,-496.296,35.136,-32.62,-310.73,-132.58
572.424,-596.336,142.984,-32.69,-314.72,-127.82
533.872,-710.528,210.816,-33.67,-318.15,-121.31
443.104,-803.248,295.24,-35.84,-320.81,-111.16
326.472,-829.112,415.776,-39.2,-322.14,-97.58
281.576,-855.464,499.712,-43.26,-322.42,-85.68
300.12,-838.384,564.128,-47.74,-322.7,-80.99
323.544,-809.592,621.712,-51.66,-323.68,-83.51
337.696,-712.48,739.32,-54.39,-324.94,-87.92
340.624,-648.064,773.48,-55.58,-325.99,-89.67
269.864,-593.408,809.104,-55.86,-326.06,-87.22
266.448,-552.904,793.488,-55.79,-324.8,-84.63
260.592,-522.16,810.08,-55.65,-322.98,-88.41
173.728,-518.256,827.648,-55.51,-320.18,-97.93
25.376,-548.024,790.56,-55.72,-315.21,-106.54
-186.416,-555.344,836.92,-56.77,-307.23,-110.04
-264.496,-579.256,791.048,-59.01,-296.31,-112.21
-293.288,-543.632,823.744,-62.44,-284.62,-118.16
-377.224,-484.584,908.656,-66.08,-272.93,-126.63
-413.336,-409.432,961.36,-69.3,-260.82,-132.93
-435.784,-402.6,1008.208,-72.45,-248.85,-136.5
-412.36,-417.24,1009.184,-76.3,-237.44,-137.83
-423.096,-429.44,1153.632,-81.2,-227.08,-135.66
-393.328,-422.12,1285.392,-86.87,-217.63,-128.1
-373.808,-420.168,1401.536,-93.17,-209.09,-114.31
-364.536,-418.704,1503.528,-99.96,-201.25,-95.76
-398.696,-419.192,1533.784,-107.73,-193.76,-74.9
-353.312,-407.48,1511.824,-116.62,-186.76,-57.05
-286.456,-430.904,1534.76,-126.63,-181.44,-48.58
-249.368,-454.328,1565.504,-137.48,-178.22,-50.33
-248.88,-530.944,1600.64,-148.89,-176.68,-57.75
-192.272,-585.6,1598.2,-160.72,-176.12,-65.94
-102.968,-574.864,1601.616,-172.48,-176.75,-70.91
-85.888,-508.008,1632.848,-183.12,-178.29,-67.97
-89.792,-511.912,1613.328,-192.43,-179.69,-56.28
-166.408,-542.168,1714.344,-201.53,-180.53,-40.6
-205.936,-536.312,1695.8,-211.05,-180.53,-28.21
-189.344,-521.184,1721.176,-220.57,-180.67,-26.74
-195.2,-464.088,1691.896,-229.67,-181.93,-36.26
-249.856,-425.536,1726.544,-237.3,-183.54,-47.46
-293.288,-387.96,1701.656,-243.95,-184.87,-53.76
-388.936,-386.496,1707.512,-249.83,-185.43,-54.95
-400.16,-394.304,1665.056,-255.57,-185.01,-54.25
-426.512,-421.144,1723.128,-261.31,-184.52,-55.09
-486.048,-502.64,1725.568,-267.4,-183.96,-57.54
-574.376,-610.976,1759.24,-274.26,-182.91,-62.44
-593.896,-695.4,1749.968,-282.38,-181.79,-72.24
-569.496,-803.736,1819.264,-291.2,-182.0,-89.88
-544.12,-867.176,1825.608,-300.79,-184.52,-116.13
-527.528,-932.568,1831.952,-310.45,-189.42,-147.56
-443.592,-1052.616,1775.832,-320.39,-196.56,-178.99
-264.008,-1185.84,1722.64,-331.31,-206.29,-207.34
-110.776,-1234.64,1654.808,-343.07,-219.1,-228.76
71.736,-1381.528,1470.344,-355.18,-234.36,-242.41
322.08,-1522.072,1385.92,-368.55,-252.21,-251.44
654.896,-1583.56,1065.304,-382.27,-273.35,-257.53
981.856,-1861.72,988.2,-395.29,-297.29,-256.27
1245.376,-1940.776,914.512,-408.66,-322.7,-242.41
1344.928,-1747.04,824.232,-419.79,-347.48,-215.46
1367.376,-1558.672,588.528,-427.0,-369.25,-184.87
1409.344,-1390.312,344.04,-430.5,-387.87,-164.99
1416.176,-1196.088,28.792,-430.01,-404.11,-160.09
1411.296,-1092.144,-292.312,-423.78,-417.69,-159.74
1350.296,-732.976,-548.024,-411.39,-427.49,-152.18
1250.256,-491.904,-944.28,-390.39,-432.18,-138.32
1246.84,-88.816,-1266.848,-361.48,-431.83,-126.63
1240.496,300.608,-1622.6,-323.47,-428.26,-121.8
1387.384,636.84,-1994.456,-276.5,-422.73,-126.42
1627.48,959.408,-2367.776,-221.76,-418.11,-143.57
1822.192,1237.08,-2710.84,-159.88,-414.89,-161.0
1979.816,1338.584,-2992.416,-92.82,-411.67,-162.96
1956.88,1564.04,-3229.096,-23.59,-406.77,-144.41
1924.184,1719.712,-3649.752,46.48,-399.42,-115.01
1776.808,2106.696,-4085.048,116.76,-390.53,-90.44
1456.192,2376.56,-4561.336,189.35,-379.75,-77.49
1031.144,2457.568,-4863.408,264.11,-365.05,-77.98
512.4,2548.336,-5110.336,340.83,-344.82,-88.55
-135.664,3073.424,-5025.424,422.66,-317.24,-103.39
-520.208,3566.792,-5041.528,513.52,-282.66,-126.56
-97.6,4995.656,-4494.48,616.56,-245.21,-164.57
1345.416,7143.832,-3433.08,740.81,-213.5,-212.66
3924.496,9412.056,-1995.432,892.08,-197.19,-253.68
6642.168,10996.104,-394.792,1066.8,-205.94,-266.14
8638.576,11647.096,831.064,1247.26,-240.24,-204.96
9508.68,11436.769,1359.08,1409.59,-304.01,-70.63
8365.784,11124.937,949.16,1532.93,-399.91,117.39
5792.072,10858.0,139.568,1605.03,-521.78,330.82
1213.168,9305.185,353.312,1585.43,-651.35,502.11
-3246.664,2123.776,-1935.408,867.09,-527.66,-563.22
2862.608,5178.656,-2360.456,772.73,-505.47,-585.69
1482.544,6805.648,-2527.84,848.68,-376.81,265.58
2711.328,6665.104,-4196.312,851.76,-405.44,748.23
2000.8,5591.504,-4712.616,796.95,-503.3,850.01
1344.44,5025.912,-4548.648,708.12,-594.02,723.31
1527.44,4726.768,-3764.432,621.67,-649.81,540.89
1374.696,4524.248,-3253.008,553.77,-672.98,420.98
783.24,4422.744,-2906.04,500.64,-669.69,375.97
639.28,4262.192,-2820.152,457.38,-647.71,334.6
1111.664,3579.968,-3055.368,423.57,-618.17,209.09
1352.248,2770.864,-3670.248,402.43,-581.42,12.39
1390.312,2016.904,-4213.392,392.63,-530.81,-161.0
1286.856,1762.168,-4742.384,388.99,-466.55,-265.02
1494.256,2000.312,-4783.864,389.2,-394.66,-323.33
2968.016,2909.944,-4215.832,396.55,-327.32,-379.4
3702.456,3365.248,-3371.104,416.08,-274.19,-427.21
3364.272,3168.096,-2950.936,440.72,-225.12,-417.48
2734.264,2889.448,-2918.728,460.74,-172.97,-348.6
2050.088,2694.736,-3081.72,473.76,-121.1,-270.9
1845.616,2813.32,-3319.376,481.88,-72.94,-237.79
2375.584,3243.736,-3283.264,489.65,-31.43,-269.43
3164.68,3407.216,-3011.448,500.15,2.17,-330.96
3331.088,3038.776,-2698.64,510.37,31.36,-360.01
3061.224,2453.176,-2576.152,515.27,60.76,-318.43
2782.088,2048.624,-2553.216,513.94,87.5,-224.0
2506.856,1895.88,-2615.68,509.6,105.98,-125.86
2471.232,2000.312,-2499.048,505.12,114.87,-63.7
2639.104,1986.648,-2217.96,501.69,115.15,-51.66
2680.584,1767.048,-1854.4,497.0,110.67,-74.27
2480.504,1364.936,-1592.832,488.32,107.31,-100.45
2213.08,1003.328,-1425.936,474.25,108.85,-110.74
1972.008,630.984,-1333.704,455.07,114.45,-105.49
1709.952,324.032,-1322.968,430.99,122.57,-92.75
1494.744,184.952,-1297.104,403.41,132.16,-81.76
1382.504,184.952,-1157.536,374.5,142.24,-80.5
1386.896,305.976,-1009.184,346.85,151.76,-90.02
1345.904,307.928,-812.032,321.58,160.09,-107.17
1317.6,275.232,-648.064,297.71,168.07,-124.74
1266.36,207.4,-481.656,274.54,175.56,-135.38
1169.736,129.32,-292.312,252.14,182.63,-135.03
1127.28,203.008,-183.976,230.65,188.58,-129.43
1016.992,88.816,-152.744,210.35,192.57,-127.26
863.272,66.368,84.424,190.75,195.44,-131.25
815.936,67.832,148.352,171.92,197.96,-140.14
844.728,26.84,283.04,153.93,198.94,-154.42
859.368,-10.248,365.512,136.43,198.03,-168.91
893.528,-42.456,426.024,119.77,195.51,-177.73
962.336,-73.2,543.632,103.95,190.75,-181.79
1001.376,-43.432,600.728,89.32,183.26,-184.45
1003.816,4.88,609.024,76.51,173.53,-189.28
1076.528,18.544,650.016,65.45,161.77,-198.24
1144.36,-14.152,696.376,55.58,147.98,-209.3
1138.016,-0.488,744.2,46.83,132.72,-216.72
1159.0,37.088,733.952,39.76,116.97,-218.47
1265.872,52.216,662.704,34.44,100.45,-216.58
1355.176,74.176,583.648,30.59,82.46,-213.22
1361.032,110.776,538.264,28.21,63.7,-209.23
1277.584,158.6,515.328,27.3,45.43,-205.38
1145.824,148.352,540.216,27.79,28.84,-200.97
974.536,145.424,580.232,29.12,14.7,-195.16
810.08,184.952,573.4,31.08,3.57,-189.21
719.8,249.368,517.768,33.81,-4.97,-187.18
707.112,284.504,460.184,37.17,-11.9,-193.69
712.968,350.872,372.832,40.74,-17.85,-210.0
677.832,402.112,291.336,44.66,-22.33,-233.52
613.904,395.768,255.712,48.72,-24.36,-257.6
527.528,359.168,220.576,52.22,-23.1,-273.49
415.288,302.072,212.28,54.74,-18.27,-274.54
338.672,271.816,168.848,55.93,-10.43,-259.84
333.792,261.568,146.888,55.93,-0.63,-233.59
351.848,269.376,141.52,55.16,9.31,-203.07
363.56,282.552,118.584,53.97,18.69,-174.79
382.104,289.872,118.096,52.29,26.88,-151.13
374.296,266.448,124.928,50.05,33.81,-132.65
328.912,249.856,123.464,46.97,39.48,-120.19
239.12,270.84,118.584,42.49,44.1,-116.83
210.816,255.224,122.488,36.82,47.67,-122.92
164.456,293.776,137.616,30.87,50.68,-130.76
165.432,336.72,151.768,25.27,53.13,-141.05
204.96,373.32,168.36,19.88,54.46,-152.32
233.264,401.136,160.552,14.63,54.46,-163.94
247.904,433.832,152.256,9.66,53.48,-174.16
256.2,466.04,149.816,5.25,51.94,-180.32
245.464,494.832,115.656,1.96,50.33,-181.16
222.04,523.136,101.504,-0.35,48.86,-177.52
216.184,597.312,85.888,-1.82,47.32,-172.62
204.472,672.464,94.672,-2.17,45.43,-169.33
190.32,756.4,98.088,-1.61,42.98,-168.63
203.008,846.68,147.376,0.0,39.97,-171.15
237.168,969.656,185.928,1.89,36.12,-178.85
221.552,1044.32,235.216,3.71,31.85,-191.66
202.52,1146.312,278.16,5.46,27.58,-202.86
207.4,1219.512,223.504,6.86,22.12,-208.95
149.328,1266.848,288.896,6.09,13.72,-213.78
283.528,1361.52,353.312,4.34,2.8,-216.58
406.016,1298.568,239.12,5.18,-8.26,-210.84
405.528,1299.544,276.696,8.4,-16.87,-198.59
388.936,1406.904,393.328,12.39,-22.12,-173.53
424.56,1478.64,489.952,15.54,-25.9,-136.57
461.16,1484.984,576.816,16.8,-30.24,-94.43
455.304,1439.6,645.624,16.1,-35.91,-57.05
396.256,1387.872,674.416,14.35,-42.42,-33.39
326.472,1335.656,671.976,12.81,-49.0,-24.78
269.376,1286.856,686.616,12.04,-55.3,-25.48
248.392,1250.256,679.296,12.18,-61.25,-28.21
226.92,1192.184,653.92,13.02,-66.78,-26.67
164.456,1104.832,628.056,14.35,-71.54,-18.76
125.416,1053.592,553.392,16.1,-75.32,-6.65
80.52,1044.32,477.752,18.62,-78.68,6.72
-31.232,1020.408,442.616,22.61,-81.41,20.16
-98.088,1006.744,416.264,27.79,-82.81,33.11
-104.92,985.76,387.472,34.02,-83.44,44.73
-115.656,894.504,374.784,40.81,-83.37,54.18
-137.128,782.752,343.064,46.97,-82.46,62.51
-183.0,719.312,302.072,51.59,-81.06,71.75
-214.232,649.04,286.944,54.39,-80.01,77.77
-230.336,569.984,235.216,55.16,-79.45,76.44
-222.04,491.416,244.976,54.88,-78.54,69.09
-235.216,479.216,281.576,54.39,-77.7,54.88
-224.48,473.848,233.264,54.88,-77.56,33.39
-245.952,433.832,244.0,56.07,-77.49,11.69
-230.336,426.024,217.16,57.33,-77.0,-5.32
-202.52,445.056,179.096,59.01,-76.37,-17.01
-175.192,459.208,182.512,61.46,-75.67,-24.57
-124.44,442.128,203.496,64.19,-74.69,-26.11
-86.376,448.96,228.872,66.57,-73.57,-21.35
-51.24,448.96,252.296,68.6,-72.38,-12.32
-27.816,440.176,246.928,69.93,-71.26,-1.19
-51.24,443.104,214.232,70.42,-70.21,9.73
-87.84,469.456,159.576,70.07,-68.81,18.27
-80.032,530.456,117.12,69.37,-66.99,22.47
-72.224,603.656,106.872,68.81,-65.17,21.21
-26.84,685.152,81.496,68.6,-63.35,14.35
30.256,701.744,16.592,68.67,-61.74,3.36
151.28,704.672,-76.616,68.32,-60.55,-10.43
276.696,735.416,-163.48,67.62,-60.27,-25.27
338.672,834.48,-239.12,66.78,-60.69,-37.66
364.048,987.224,-338.184,66.92,-60.97,-44.87
427.488,1180.472,-468.48,68.67,-60.83,-45.5
528.504,1361.52,-585.112,72.31,-60.83,-39.62
605.608,1496.208,-665.144,77.56,-61.53,-28.98
657.336,1652.856,-756.888,83.86,-62.72,-16.31
697.84,1779.248,-797.392,91.28,-64.47,-4.76
691.984,1910.52,-849.608,99.61,-66.57,3.99
707.112,1977.376,-943.792,108.64,-68.74,9.24
754.448,1992.016,-971.608,118.09,-71.26,9.59
793.488,1965.664,-978.44,127.12,-74.41,4.9
830.088,1921.744,-1004.792,135.8,-78.05,-2.8
841.312,1833.904,-1016.504,143.78,-81.69,-9.52
806.664,1679.208,-1015.528,150.43,-85.05,-11.06
768.112,1526.464,-1018.456,155.19,-87.64,-6.51
741.272,1391.288,-1028.216,157.78,-89.6,2.31
716.872,1268.8,-1026.752,158.41,-91.49,13.09
692.472,1157.536,-1012.6,157.43,-93.52,24.43
668.56,1071.648,-1006.256,155.19,-95.69,35.49
641.72,988.2,-984.784,152.11,-98.28,45.29
621.224,906.216,-953.064,148.19,-101.15,52.5
600.24,815.448,-916.952,143.78,-104.37,56.35
568.032,722.728,-873.52,138.67,-107.73,57.12
535.336,656.36,-836.432,133.07,-111.02,56.0
510.936,641.72,-809.104,127.54,-114.17,54.95
489.952,630.984,-780.8,122.57,-117.25,55.16
485.56,620.248,-742.248,118.3,-120.33,56.7
470.92,600.24,-690.52,114.59,-123.69,59.29
453.352,589.016,-648.552,111.3,-127.26,62.3
434.808,577.792,-608.536,108.5,-131.18,64.54
395.768,558.272,-570.96,106.05,-135.17,65.1
356.728,544.608,-550.464,103.74,-139.23,63.42
308.904,583.16,-563.152,101.85,-143.22,60.13
273.28,632.448,-555.832,100.8,-147.14,55.23
245.464,675.392,-544.608,100.73,-150.99,47.81
226.432,738.344,-526.552,101.57,-154.77,38.57
194.712,759.816,-510.936,103.39,-158.41,29.68
166.408,754.936,-481.168,105.63,-161.84,21.84
109.8,762.256,-470.92,108.15,-164.92,14.56
23.424,781.288,-489.952,110.81,-167.37,8.47
-62.464,831.552,-563.152,113.89,-168.77,4.34
-70.76,855.464,-623.664,117.53,-169.47,0.91
-24.888,839.36,-596.824,121.38,-170.52,-3.85
6.832,774.944,-508.984,125.16,-172.34,-11.06
-0.976,648.552,-435.296,128.24,-174.58,-19.18
-33.672,550.464,-429.44,130.13,-176.4,-25.34
-24.888,569.496,-459.208,131.04,-177.73,-28.42
16.104,638.304,-511.424,132.23,-178.92,-29.96
40.016,721.752,-565.104,134.26,-180.39,-30.87
-26.84,725.168,-559.736,137.13,-181.65,-29.89
-173.728,722.728,-518.256,140.35,-181.37,-24.64
-340.136,774.456,-442.128,143.78,-178.78,-13.93
-592.92,827.16,-366.488,147.77,-173.74,1.19
-842.288,915.488,-294.752,152.53,-165.62,18.83
-1062.376,979.416,-262.056,157.92,-154.91,35.63
-1214.632,1001.376,-288.408,163.45,-142.31,46.62
-1266.36,1004.304,-338.184,168.84,-129.08,47.04
-1319.552,912.56,-364.048,173.53,-115.92,35.21
-1328.336,737.856,-348.432,176.68,-102.62,13.3
-1306.376,553.88,-323.544,177.52,-89.25,-14.91
-1276.608,373.808,-326.472,175.98,-75.81,-44.87
-1227.808,193.736,-353.8,172.06,-62.09,-72.03
-1147.288,73.2,-362.584,166.11,-48.37,-91.42
-1070.672,8.784,-366.0,159.18,-35.07,-99.75
-984.296,-59.048,-358.192,151.83,-22.68,-97.09
-911.584,-102.48,-282.064,144.41,-11.55,-86.31
-864.248,-125.416,-232.776,137.13,-2.1,-71.33
-813.008,-206.912,-220.088,129.99,5.74,-54.95
-773.968,-298.168,-205.936,122.36,12.04,-39.2
-773.968,-327.936,-224.48,114.24,16.94,-25.06
-806.176,-317.2,-252.784,106.19,21.0,-12.74
-794.464,-386.496,-241.072,98.35,24.5,-2.59
-743.712,-520.208,-200.568,90.09,26.95,4.62
-665.144,-646.6,-162.992,80.71,28.07,9.45
-622.688,-721.752,-126.392,70.49,27.79,13.51
-573.4,-743.224,-141.52,59.85,26.6,16.87
-586.088,-795.928,-201.056,49.28,24.78,19.25
-666.608,-879.376,-220.576,38.36,23.17,21.84
-726.144,-909.632,-223.016,27.09,22.68,25.9
-763.72,-910.608,-236.192,16.1,23.03,31.29
-734.928,-823.256,-316.224,5.81,23.87,37.17
-689.544,-740.296,-395.768,-2.94,24.64,43.05
-661.728,-717.36,-427.976,-10.43,25.13,48.51
-630.984,-711.992,-429.928,-17.22,25.55,54.25
-585.6,-716.384,-413.824,-23.45,25.83,60.55
-555.832,-711.016,-411.384,-29.33,25.97,66.99
-569.008,-718.336,-437.248,-34.79,26.11,73.71
-562.176,-698.328,-488.488,-40.11,26.74,82.18
-538.264,-653.432,-549.976,-45.01,27.86,92.96
-513.376,-610.976,-636.84,-49.28,29.33,106.4
-480.192,-579.256,-702.72,-52.99,31.01,122.01
-457.744,-529.968,-723.216,-56.14,32.76,138.6
-462.624,-444.568,-798.368,-58.59,34.58,154.98
-496.296,-364.048,-887.672,-60.06,36.75,170.59
-488.0,-279.136,-977.464,-60.69,39.13,183.96
-466.528,-194.712,-1038.464,-60.41,41.09,193.13
-453.352,-130.296,-1087.752,-59.64,42.49,198.17
-429.44,-81.008,-1102.392,-58.17,43.26,200.13
-398.208,-37.576,-1101.904,-56.49,43.47,200.69
-378.688,24.4,-1128.256,-54.53,43.19,200.97
-363.56,84.424,-1139.48,-52.43,42.49,201.25
-349.408,160.552,-1138.992,-49.98,41.65,201.04
-321.592,251.32,-1171.2,-47.18,40.46,200.41
-308.904,293.776,-1163.88,-44.1,39.06,199.57
-310.856,324.52,-1155.096,-41.16,37.52,198.52
-284.016,352.824,-1174.128,-38.5,35.7,196.84
-260.592,372.344,-1172.176,-36.26,33.53,193.9
-254.248,364.048,-1157.536,-34.72,31.08,189.7
-258.152,345.504,-1137.04,-34.02,28.63,184.45
-288.896,358.68,-1127.768,-34.3,26.53,179.41
-325.496,413.824,-1094.584,-34.72,25.06,177.17
-355.264,483.12,-1057.496,-34.86,24.36,178.15
-374.296,555.832,-1024.312,-34.37,24.15,180.39
-385.032,594.384,-964.288,-33.25,24.22,180.81
-361.608,634.4,-915.488,-32.06,24.15,176.12
-329.4,654.408,-862.784,-30.73,23.66,165.48
-305.976,661.24,-805.688,-29.4,22.75,152.04
-276.696,668.072,-749.08,-28.0,21.7,139.79
-231.312,675.88,-691.496,-26.53,20.65,130.62
-189.344,676.368,-662.704,-24.92,19.46,124.67
-150.304,661.24,-620.736,-23.38,18.2,122.29
-123.952,631.472,-575.84,-22.19,16.94,122.92
-106.872,588.04,-568.52,-21.7,15.82,125.37
-100.04,550.464,-561.2,-22.05,14.77,128.59
-102.48,519.72,-537.776,-23.24,14.07,133.21
-81.984,496.784,-505.08,-24.92,13.86,139.72
-54.168,477.264,-477.752,-26.88,13.93,147.49
-36.6,477.264,-467.504,-29.19,14.0,155.47
-7.808,479.216,-451.888,-31.5,14.0,162.12
13.176,484.096,-433.832,-33.88,13.86,166.04
59.048,510.936,-445.544,-36.12,13.51,166.04
104.92,534.848,-458.232,-38.15,12.67,162.61
125.904,562.176,-484.584,-39.76,11.55,158.13
152.256,580.72,-495.32,-40.88,10.5,154.63
200.568,606.584,-503.616,-41.65,9.52,152.6
261.568,650.016,-548.024,-41.93,8.26,152.11
313.296,689.056,-586.088,-41.51,6.72,152.6
350.384,724.68,-602.68,-40.67,4.9,153.51
377.224,743.224,-593.896,-39.34,2.94,154.42
420.168,752.496,-623.664,-38.01,0.91,154.84
457.744,767.136,-674.904,-36.75,-1.33,154.35
477.752,772.504,-713.944,-35.63,-3.71,154.42
494.832,807.64,-743.224,-34.51,-6.02,155.96
507.52,824.72,-777.384,-33.25,-8.19,157.5
517.28,851.56,-814.96,-32.2,-10.43,156.66
520.208,885.232,-860.832,-31.08,-12.6,151.97
542.656,909.632,-897.92,-30.1,-14.77,143.15
569.984,923.296,-923.784,-29.12,-17.08,131.39
579.744,936.96,-909.632,-28.14,-19.53,118.93
574.864,929.64,-889.624,-27.16,-21.77,107.52
583.16,900.36,-871.568,-26.46,-23.73,98.0
565.104,848.632,-842.776,-26.25,-25.34,91.07
550.952,797.88,-790.072,-26.88,-26.53,86.66
540.704,748.104,-758.352,-28.42,-27.3,83.93
539.24,706.136,-740.296,-30.8,-27.72,82.11
533.384,677.832,-694.424,-33.67,-28.0,81.48
513.864,653.92,-613.904,-36.96,-28.07,82.6
492.392,629.52,-574.864,-40.39,-27.79,85.47
488.488,622.688,-565.592,-44.17,-27.23,88.76
488.976,623.176,-543.632,-48.02,-26.74,91.21
490.928,640.256,-520.696,-51.87,-26.39,91.98
480.68,659.288,-499.224,-55.3,-26.11,91.63
470.432,668.56,-477.264,-58.24,-25.9,91.21
461.648,659.776,-450.424,-60.76,-25.62,91.07
457.744,638.792,-438.224,-63.07,-25.41,90.51
458.72,616.832,-436.272,-65.38,-25.41,89.04
467.504,614.88,-447.496,-67.69,-25.69,86.24
475.8,624.152,-451.4,-69.72,-26.32,81.97
493.856,645.136,-442.128,-71.19,-27.37,76.79
517.28,668.56,-434.808,-72.17,-28.84,70.98
553.88,716.384,-431.392,-72.38,-30.87,65.03
577.304,733.952,-426.512,-71.82,-33.32,59.92
610.488,738.832,-432.368,-70.7,-36.12,56.14
642.696,742.736,-439.688,-69.37,-39.13,54.11
665.632,733.952,-449.448,-67.9,-42.35,53.69
693.448,737.856,-456.28,-66.43,-45.71,54.67
719.8,735.416,-473.36,-64.89,-49.07,56.77
731.512,731.512,-488.0,-63.42,-52.43,59.64
732.976,735.416,-493.856,-62.16,-55.51,63.56
714.92,744.2,-493.856,-61.04,-58.17,68.18
698.328,778.848,-514.84,-59.92,-60.27,72.59
675.88,820.328,-551.44,-58.87,-61.88,75.04
657.336,858.392,-560.712,-57.75,-63.07,73.92
642.208,897.432,-572.912,-56.49,-63.84,68.74
622.2,912.072,-563.152,-55.16,-64.26,60.48
592.92,921.344,-513.864,-53.97,-64.05,51.03
555.832,900.848,-518.744,-52.92,-63.14,42.14
509.96,874.008,-529.48,-52.36,-61.18,35.0
440.664,833.016,-521.672,-52.29,-57.96,31.01
373.32,802.76,-521.672,-52.99,-53.34,30.24
302.56,765.184,-510.448,-54.25,-47.32,31.92
246.44,743.224,-476.288,-56.0,-40.11,34.58
204.96,720.776,-448.96,-57.96,-32.13,36.19
185.928,718.824,-452.376,-59.99,-23.73,34.79
157.136,709.064,-427.976,-61.81,-15.33,29.33
138.592,727.12,-423.584,-63.35,-6.93,19.95
138.104,752.984,-415.288,-64.47,1.33,7.14
159.576,776.408,-427.0,-65.03,9.31,-9.1
203.496,772.016,-445.544,-65.31,16.66,-28.42
259.128,752.984,-457.256,-65.66,23.38,-48.86
327.448,737.856,-453.84,-66.15,29.4,-67.62
411.872,727.608,-446.52,-66.92,34.79,-83.44
510.448,756.888,-458.232,-67.69,39.48,-97.02
620.248,646.112,-396.256,-68.39,43.4,-108.08
671.488,746.152,-342.088,-69.72,46.83,-117.46
681.248,814.96,-398.208,-70.0,50.82,-120.12
728.096,876.448,-434.32,-69.37,55.86,-112.63
749.568,917.928,-472.384,-68.53,61.67,-99.61
791.048,967.704,-542.656,-67.48,68.04,-84.7
788.12,976.0,-531.432,-66.01,74.69,-67.9
777.384,990.152,-483.608,-64.96,81.62,-48.86
769.088,1003.328,-479.216,-63.63,88.62,-30.17
759.816,1011.136,-475.312,-62.23,94.92,-15.33
732.0,998.936,-467.504,-60.76,100.38,-6.23
697.84,990.64,-473.36,-59.78,104.93,-2.52
693.448,985.76,-483.608,-59.15,108.5,-3.29
693.936,963.312,-464.576,-58.87,110.88,-6.65
688.568,955.992,-437.736,-59.01,112.28,-9.73
675.88,938.912,-406.992,-59.22,112.84,-10.64
676.368,914.024,-372.344,-59.57,112.84,-9.66
673.44,894.016,-365.024,-60.2,112.14,-7.42
630.984,876.936,-361.608,-60.9,111.02,-3.43
589.016,879.376,-364.536,-61.53,109.83,2.45
542.168,895.48,-365.024,-61.81,108.57,9.1
468.48,923.296,-363.56,-61.53,107.31,15.33
419.192,953.064,-344.528,-60.27,106.33,20.44
387.472,962.824,-324.032,-58.24,105.21,23.59
373.32,947.696,-307.44,-55.65,103.88,24.64
314.76,919.392,-276.696,-52.85,102.34,24.78
249.856,902.8,-233.264,-49.91,101.01,25.27
210.328,874.984,-190.808,-46.83,99.96,25.34
206.912,839.848,-149.816,-43.68,98.84,23.17
187.392,791.536,-122.0,-40.95,97.37,18.27
202.52,784.216,-116.632,-38.64,95.62,11.55
223.016,772.016,-125.416,-36.47,93.45,4.41
199.104,734.928,-102.48,-34.65,90.93,-1.75
148.352,664.656,-69.784,-33.32,88.41,-7.21
174.216,643.184,-39.528,-32.69,85.96,-13.3
230.336,630.008,-55.632,-32.41,82.67,-21.07
226.432,649.528,-42.944,-32.2,78.75,-27.86
212.28,634.4,-12.688,-31.64,74.9,-32.62
201.544,647.088,-4.392,-31.22,71.4,-35.14
254.736,700.28,-27.328,-30.45,67.97,-35.21
229.36,657.336,-7.808,-29.26,64.33,-33.53
210.328,722.24,21.472,-28.07,61.11,-31.5
208.376,783.24,25.376,-26.18,58.17,-30.73
226.432,808.128,57.584,-23.45,55.16,-31.78
262.056,943.792,102.968,-19.74,52.01,-34.44
236.68,988.2,142.008,-14.35,48.72,-38.01
272.304,1059.936,158.112,-8.19,45.57,-41.79
302.072,1084.336,169.336,-0.91,42.07,-45.43
289.384,1134.112,179.584,6.72,38.43,-47.46
280.6,1168.272,184.952,15.05,35.14,-46.9
314.76,1111.176,154.208,23.38,32.2,-43.68
335.256,1150.216,163.48,31.36,29.19,-38.64
284.992,1047.248,159.576,39.13,26.39,-33.6
341.112,1022.36,92.72,45.64,24.15,-29.4
393.328,1040.904,95.648,51.66,21.56,-26.25
370.392,1015.04,121.512,57.47,18.76,-23.38
321.592,182.024,347.944,62.09,16.59,-19.95
453.84,961.848,242.048,30.8,16.45,-10.15
326.472,1441.552,144.936,19.04,14.91,-3.71
363.56,1316.624,87.84,21.0,13.79,-1.19
330.864,906.704,156.648,28.07,12.74,1.19
366.0,993.568,123.464,34.93,11.97,4.9
319.152,1250.256,82.96,43.26,11.48,11.69
234.24,1191.696,63.928,52.5,11.83,22.61
216.184,1032.608,94.672,61.6,13.02,35.28
234.728,987.224,105.896,70.7,14.0,45.99
244.488,935.008,130.296,77.7,13.79,52.36
215.208,916.952,96.136,78.12,12.88,53.69
225.944,826.672,135.664,77.7,12.46,51.8
225.944,843.752,125.416,77.49,11.83,47.39
250.344,893.528,138.592,78.75,11.13,41.37
270.352,845.704,161.04,80.29,10.15,33.81
279.624,817.4,121.512,80.99,9.1,24.92
356.24,828.136,143.472,81.41,8.05,14.63
341.112,808.128,145.424,82.25,6.79,5.81
390.4,849.12,128.344,83.37,6.02,0.21
417.728,874.984,84.424,85.19,5.18,-0.91
418.216,906.704,72.712,87.01,4.69,3.78
437.736,896.944,95.16,88.9,4.48,14.14
446.52,905.728,89.304,90.72,4.13,27.65
479.704,924.76,31.232,92.68,3.29,40.6
515.816,978.928,-12.688,94.78,1.61,50.47
498.736,1015.528,-29.768,97.3,-0.63,57.12
524.6,1068.232,-5.368,100.31,-2.8,61.39
493.856,1140.456,-20.008,104.3,-4.9,62.93
467.992,1240.984,-82.96,109.69,-6.72,63.49
410.408,1316.624,-125.904,116.13,-7.84,64.61
373.808,1369.816,-155.184,122.78,-8.26,66.43
400.648,1438.624,-249.856,129.99,-8.54,67.9
415.776,1512.8,-328.912,137.62,-8.96,68.39
426.024,1580.144,-433.832,145.25,-9.73,67.27
426.512,1579.168,-513.864,152.18,-10.64,62.02
404.064,1547.448,-624.152,156.66,-10.85,51.24
363.072,1464.488,-728.584,157.99,-9.94,36.19
320.128,1396.168,-819.84,155.61,-7.56,17.92
286.944,1398.12,-946.232,149.8,-3.92,-4.06
342.088,1471.808,-1061.4,142.03,0.49,-31.22
410.896,1557.696,-1112.152,133.21,4.9,-61.53
504.104,1629.92,-1219.024,124.04,9.1,-90.79
596.824,1669.448,-1289.784,114.66,12.74,-117.25
682.712,1699.216,-1363.96,104.93,15.54,-141.12
784.216,1749.48,-1428.864,95.27,17.08,-163.45
883.768,1766.072,-1473.272,86.1,16.73,-185.5
991.128,1776.32,-1531.832,77.77,14.35,-208.39
1103.368,1769.0,-1570.872,70.21,9.8,-232.47
1204.384,1759.24,-1622.6,63.84,3.15,-256.62
1299.544,1716.296,-1633.336,58.59,-5.18,-278.25
1430.816,1691.896,-1623.088,54.81,-14.98,-294.77
1577.216,1634.8,-1630.896,52.64,-26.81,-304.29
1693.848,1565.016,-1596.736,52.29,-40.32,-305.69
1760.704,1452.288,-1596.248,53.41,-54.81,-298.13
1830.488,1303.448,-1556.72,55.37,-69.51,-281.75
1825.12,1118.984,-1487.424,57.12,-83.72,-258.72
1758.264,928.176,-1469.856,57.82,-96.53,-232.19
1750.456,762.744,-1346.392,57.05,-108.29,-207.69
1726.544,609.512,-1232.2,54.88,-119.91,-190.33
1687.992,476.776,-1101.904,51.8,-131.18,-179.41
1615.28,369.416,-983.808,48.16,-141.89,-171.85
1493.28,269.864,-872.544,44.38,-151.41,-165.97
1362.496,206.912,-761.768,40.67,-159.18,-161.98
1323.944,173.24,-704.672,37.45,-165.76,-161.42
1308.328,138.104,-613.416,35.21,-172.13,-164.08
1267.336,69.296,-512.4,33.81,-178.57,-166.74
1134.112,-25.864,-419.192,32.62,-184.59,-163.94
1052.616,-126.392,-363.56,30.8,-189.7,-154.63
991.128,-196.664,-281.576,28.0,-194.88,-144.06
889.136,-228.384,-198.616,24.71,-200.69,-136.78
795.44,-273.28,-53.68,21.98,-206.85,-133.91
742.248,-353.8,79.544,19.39,-213.43,-135.31
637.328,-456.768,145.424,16.73,-220.15,-137.69
481.168,-542.168,257.176,13.58,-225.75,-135.94
404.552,-635.864,308.416,9.59,-229.6,-129.43
350.384,-687.592,360.144,4.62,-232.68,-120.89
165.432,-675.392,462.136,-1.05,-234.92,-112.7
52.704,-641.72,462.624,-6.65,-235.62,-108.5
58.56,-571.448,428.952,-11.76,-236.04,-112.91
17.568,-461.648,465.552,-15.54,-237.3,-124.25
-43.92,-400.648,527.04,-17.43,-238.49,-134.4
-94.672,-466.04,603.168,-18.27,-239.4,-139.02
-92.72,-503.128,677.832,-19.53,-240.17,-139.16
-0.976,-524.6,685.64,-21.21,-241.5,-137.9
-23.912,-542.168,754.936,-23.17,-243.81,-136.57
-74.176,-564.128,712.48,-25.83,-245.63,-135.94
-129.808,-555.832,701.256,-29.4,-246.68,-138.67
-224.48,-553.88,684.664,-33.67,-246.96,-146.51
-252.784,-520.208,663.68,-38.5,-246.47,-158.34
-360.144,-496.784,683.2,-43.26,-245.28,-170.59
-390.888,-467.504,646.6,-47.95,-242.76,-179.34
-431.88,-465.552,645.136,-52.64,-238.98,-181.51
-367.952,-406.992,551.928,-57.26,-234.15,-174.72
-481.656,-342.088,647.088,-61.74,-228.69,-157.01
-652.944,-280.112,730.048,-66.64,-221.27,-132.3
-695.888,-321.104,667.584,-72.94,-212.52,-115.15
-828.624,-402.112,778.848,-81.34,-204.12,-114.94
-843.264,-454.816,748.104,-91.91,-195.79,-127.89
-627.568,-474.824,730.048,-103.32,-189.14,-144.48
-553.88,-442.128,836.92,-114.59,-185.36,-149.24
-524.112,-382.104,961.36,-124.95,-182.84,-132.3
-588.528,-379.176,1079.456,-135.03,-181.3,-105.91
-650.504,-475.8,1177.544,-146.09,-181.09,-91.91
-754.448,-560.712,1305.888,-158.9,-183.26,-102.62
-681.248,-620.248,1249.28,-172.55,-188.3,-135.24
-764.696,-659.288,1445.456,-186.06,-196.84,-176.54
-480.192,-557.296,1346.392,-198.03,-208.04,-213.43
-442.616,-605.608,1505.968,-207.48,-223.23,-235.41
-461.16,-667.584,1493.28,-215.81,-239.05,-235.34
-485.072,-820.816,1588.44,-224.28,-254.31,-220.92
-697.352,-846.68,1733.376,-233.87,-268.45,-203.91
-792.512,-886.696,1785.592,-244.02,-280.63,-195.3
-838.872,-932.568,1854.888,-254.38,-292.95,-206.99
-699.792,-1040.416,1874.896,-264.39,-307.37,-238.42
-650.992,-1198.528,1986.648,-273.98,-324.59,-275.03
-482.632,-1392.264,2032.032,-283.5,-342.93,-303.45
-218.624,-1509.872,1983.232,-294.28,-362.67,-324.1
220.576,-1685.552,1870.992,-305.2,-385.21,-339.43
555.344,-1937.848,1988.6,-317.38,-410.69,-344.75
861.32,-2100.352,1971.52,-330.82,-437.85,-334.6
1062.864,-2244.312,1895.392,-346.43,-464.52,-311.5
1221.464,-2224.792,1634.8,-363.93,-490.28,-285.04
1438.136,-2092.544,1345.904,-381.36,-515.34,-264.74
1758.264,-1941.264,1029.192,-396.48,-540.47,-254.52
1952.976,-1726.056,714.92,-407.26,-566.02,-248.15
2109.136,-1584.048,266.448,-411.88,-589.54,-234.36
2208.2,-1455.704,-59.536,-411.46,-609.07,-210.56
2309.704,-1098.0,-599.264,-404.88,-623.49,-181.51
2432.68,-648.064,-899.384,-389.62,-633.29,-152.6
2470.256,104.92,-1327.848,-363.58,-639.1,-131.32
2419.992,750.544,-1766.072,-324.31,-641.97,-131.81
2631.784,1205.848,-2909.944,-271.39,-643.65,-166.74
2825.032,1615.768,-3281.8,-205.94,-645.12,-209.3
3260.816,2123.776,-3578.992,-129.5,-643.02,-208.74
3421.368,2401.448,-3772.24,-46.13,-637.98,-162.75
2887.496,2625.928,-4039.664,36.96,-626.99,-87.01
1948.096,2898.72,-4502.288,117.04,-608.16,-19.46
523.624,2629.832,-5800.856,195.16,-580.37,-12.74
-923.784,2697.664,-7063.8,274.4,-537.95,-81.06
-1704.096,4484.232,-7744.56,368.97,-477.19,-192.85
-839.848,6735.376,-7676.728,496.3,-403.06,-333.69
1275.632,10397.328,-6560.184,664.93,-325.78,-481.74
4337.832,14022.68,-4875.608,881.93,-252.98,-576.59
7076.976,15962.48,-2746.464,1139.74,-193.34,-567.56
8400.432,15978.096,-187.392,1411.76,-145.53,-446.81
9294.448,15978.096,2916.288,1689.8,-129.01,-263.06
8273.064,15978.096,5247.952,1937.53,-158.55,-72.24
4287.568,15978.096,4473.984,2096.5,-222.74,106.82
1938.824,4728.232,2024.712,1534.47,-260.12,510.79
2022.76,10124.536,-1374.696,340.97,-389.55,604.59
-674.904,10317.296,-2186.24,345.73,-439.67,-109.76
329.888,6351.808,-3723.928,650.58,-372.54,-556.15
2013.0,3099.288,-4834.616,931.21,-233.59,-463.47
3866.424,2699.128,-4921.48,896.42,-154.91,-70.63
4131.408,3709.288,-4777.52,791.14,-167.51,284.48
2624.464,4204.12,-4325.144,695.24,-223.37,439.39
330.864,4434.456,-3786.392,607.95,-267.96,409.71
-544.608,4516.928,-3562.888,538.09,-276.36,271.32
-202.032,4747.264,-3453.088,489.51,-258.51,80.22
391.376,4636.976,-3883.504,461.44,-226.59,-88.76
867.664,4699.44,-4278.296,446.6,-187.39,-168.14
1184.376,5029.328,-4447.144,443.03,-147.63,-153.93
1331.752,5706.672,-3889.848,452.69,-112.7,-92.47
1560.136,6441.112,-3237.392,477.19,-86.45,-30.87
1523.048,6579.704,-2885.056,513.45,-69.72,1.75
1557.696,5999.472,-2798.192,550.48,-58.52,-17.78
1425.448,5368.976,-2821.616,579.04,-46.41,-85.96
1318.088,4847.304,-2763.544,597.45,-25.83,-163.87
1286.368,4522.296,-2725.968,607.04,4.83,-220.22
1417.152,4372.968,-2661.552,609.7,42.14,-243.95
1581.12,4156.296,-2532.232,607.32,80.29,-238.77
1550.864,3738.08,-2404.864,599.9,115.5,-208.81
1410.808,3281.312,-2359.968,587.23,146.79,-162.19
1214.144,3030.968,-2287.256,571.62,173.46,-113.05
1007.232,2845.528,-2209.176,556.08,195.79,-77.84
834.968,2660.576,-2121.824,541.38,215.18,-71.54
805.2,2569.808,-2024.712,525.56,233.94,-98.14
1038.952,2624.464,-1792.424,508.06,253.05,-148.47
1145.824,2488.8,-1510.848,488.39,272.58,-201.39
1134.6,2077.904,-1287.344,464.73,293.86,-235.62
1083.848,1627.48,-1172.664,434.7,316.12,-245.28
1043.344,1250.256,-1192.672,399.07,337.4,-231.7
1007.72,1026.752,-1161.44,360.08,355.67,-205.73
976.0,848.144,-1089.216,320.25,369.6,-180.6
1009.672,783.728,-1042.368,281.19,378.91,-165.48
1071.648,816.424,-899.872,243.95,383.39,-164.22
1102.392,919.88,-749.08,208.95,383.32,-173.32
1147.776,941.352,-552.416,176.61,379.26,-189.63
1111.664,923.296,-420.656,145.67,371.56,-211.75
1115.568,822.28,-289.872,115.43,361.41,-234.64
1118.008,754.936,-289.384,85.33,348.95,-252.07
1039.44,697.352,-193.248,56.7,334.74,-258.16
990.64,660.264,-196.176,30.1,319.48,-255.08
915.0,610.488,-228.384,6.37,303.17,-246.19
752.008,595.848,-122.0,-14.28,286.44,-230.23
647.576,583.648,-93.208,-31.43,269.92,-210.21
663.192,551.928,-83.448,-45.5,252.49,-194.32
594.384,562.176,-10.248,-57.19,233.1,-187.11
527.04,579.256,-7.808,-66.85,212.59,-191.31
575.352,566.568,-50.752,-75.25,191.03,-209.09
535.824,549.976,-54.168,-82.6,168.49,-235.13
419.68,545.584,-20.496,-88.9,146.58,-260.47
379.176,540.216,-56.608,-94.01,126.56,-282.59
400.648,517.768,-101.992,-97.86,107.66,-302.54
352.824,476.776,-79.056,-100.73,89.81,-318.01
318.664,461.16,-80.52,-102.62,73.5,-326.48
360.144,467.504,-94.672,-103.25,58.38,-328.79
411.384,435.784,-85.4,-102.69,43.68,-327.46
458.232,392.352,-109.312,-101.5,29.26,-324.17
486.536,354.776,-101.992,-99.54,15.19,-318.15
575.84,382.592,-49.288,-96.88,1.54,-308.0
609.512,385.52,27.816,-92.96,-11.97,-294.07
573.4,325.984,94.672,-88.2,-24.71,-277.34
580.72,312.32,181.536,-83.3,-35.98,-258.93
596.336,308.416,250.832,-78.33,-46.34,-241.43
609.024,321.592,268.888,-73.15,-56.0,-228.2
657.336,351.36,323.544,-67.83,-65.17,-219.94
715.408,303.048,509.472,-62.3,-74.2,-215.46
773.48,220.576,729.072,-57.33,-83.23,-213.57
877.424,268.888,845.704,-52.92,-92.26,-212.38
1033.584,449.936,957.944,-47.88,-101.57,-210.14
1199.504,677.344,1126.792,-40.53,-111.65,-206.08
1446.432,915.976,1327.36,-30.52,-122.64,-199.15
1589.416,1027.728,1529.392,-18.06,-134.68,-188.51
1561.112,1030.656,1590.88,-4.9,-146.23,-172.41
1465.464,979.416,1527.928,7.49,-155.68,-149.59
1402.512,943.792,1466.928,18.13,-162.61,-121.87
1357.616,905.24,1365.912,26.74,-168.0,-94.15
1304.912,889.624,1244.888,33.53,-172.55,-70.77
1294.664,922.32,1168.272,38.99,-176.68,-53.69
1231.712,874.008,1098.976,43.33,-180.67,-43.89
1109.224,795.928,963.312,46.2,-183.75,-40.39
1016.016,712.48,821.304,47.32,-185.5,-41.44
974.536,629.032,732.976,47.04,-186.2,-45.08
967.216,611.464,676.856,45.64,-186.48,-48.93
943.792,592.92,623.664,43.82,-186.62,-51.66
881.816,544.608,540.216,41.51,-186.06,-53.06
815.936,518.256,454.328,38.36,-184.59,-52.64
748.592,483.12,374.296,34.37,-182.14,-49.7
690.032,451.4,289.384,29.61,-178.92,-44.03
661.728,451.888,253.76,24.36,-175.21,-35.84
646.6,455.792,252.296,18.83,-171.43,-26.81
611.952,398.208,232.288,12.88,-167.79,-18.69
555.832,356.24,191.296,5.88,-163.87,-15.61
525.088,343.064,135.664,-1.89,-159.6,-18.48
487.024,337.208,139.08,-10.01,-154.91,-23.52
484.584,330.864,129.808,-18.13,-150.01,-28.42
477.264,331.352,119.56,-25.83,-145.32,-32.13
458.72,350.384,162.504,-33.04,-140.56,-32.55
446.032,363.56,177.144,-39.55,-135.66,-29.4
435.296,364.048,175.68,-45.57,-130.83,-24.64
403.576,339.16,179.584,-51.31,-126.07,-19.88
379.664,320.128,170.312,-57.05,-121.17,-15.82
361.608,312.808,172.264,-62.72,-116.34,-12.81
342.088,298.168,172.264,-68.32,-111.65,-10.99
331.84,295.24,166.896,-73.78,-107.17,-10.64
310.368,309.88,155.672,-78.82,-102.83,-11.2
300.12,332.816,126.392,-83.44,-98.56,-11.69
295.24,353.312,136.64,-87.5,-94.43,-12.18
298.168,387.96,110.776,-91.14,-90.51,-13.58
338.672,456.768,89.792,-94.01,-87.08,-16.31
386.496,524.6,113.216,-96.11,-84.7,-21.28
459.208,609.512,142.008,-97.16,-83.3,-29.47
545.096,707.6,178.608,-97.09,-83.3,-41.51
612.44,809.592,241.072,-95.62,-84.56,-56.35
663.192,918.416,263.52,-92.54,-86.8,-71.26
708.576,1004.792,277.184,-87.99,-89.53,-83.65
750.544,1078.48,275.232,-82.32,-92.61,-92.05
807.64,1162.904,257.176,-75.67,-95.9,-95.9
880.84,1239.032,254.736,-68.11,-99.54,-94.85
912.072,1262.944,252.784,-60.06,-103.39,-89.11
898.896,1258.552,243.512,-52.29,-107.1,-79.38
863.76,1235.616,201.544,-45.36,-110.25,-67.27
844.24,1194.136,160.064,-39.62,-112.7,-55.37
829.6,1175.104,109.312,-35.28,-115.01,-46.48
789.096,1175.104,65.392,-31.85,-117.18,-40.81
750.056,1182.912,48.8,-28.98,-118.86,-36.68
702.72,1177.056,42.944,-26.53,-120.05,-32.69
649.04,1166.32,39.04,-24.29,-120.47,-28.42
602.192,1159.488,27.328,-22.33,-120.47,-24.01
555.344,1148.264,21.472,-20.23,-119.91,-19.74
500.2,1116.056,11.224,-18.06,-119.0,-15.75
444.568,1069.696,17.568,-16.03,-117.53,-11.9
392.352,1028.216,5.856,-14.35,-115.64,-8.54
345.992,974.536,-8.296,-13.09,-113.4,-6.58
299.144,916.464,-17.568,-12.39,-110.74,-6.37
248.88,865.224,-30.744,-12.04,-107.87,-7.42
212.768,819.84,-49.776,-11.97,-104.72,-9.38
188.856,783.728,-53.192,-12.04,-101.5,-12.04
176.168,764.208,-60.024,-12.04,-98.28,-15.47
171.288,745.176,-68.32,-11.62,-95.34,-19.11
179.584,736.88,-63.928,-10.85,-92.61,-23.1
193.248,727.608,-59.048,-9.8,-90.37,-27.51
204.96,700.28,-46.848,-8.33,-88.55,-32.41
217.16,687.104,-38.064,-6.79,-87.15,-37.52
239.12,692.472,-42.456,-4.97,-86.1,-42.98
260.104,676.856,-42.944,-2.94,-85.54,-48.79
277.184,669.048,-48.8,-0.91,-85.33,-54.74
296.216,686.128,-59.536,1.26,-85.47,-60.48
302.56,688.08,-60.024,3.64,-85.75,-65.24
293.288,674.416,-57.096,6.09,-86.1,-68.67
288.408,679.784,-69.296,8.54,-86.38,-70.84
284.992,676.856,-66.856,10.85,-86.52,-71.96
281.576,705.16,-77.104,13.02,-86.66,-72.8
315.248,725.168,-92.232,15.33,-86.87,-73.78
347.456,748.592,-74.176,17.57,-87.5,-74.48
352.336,746.152,-55.632,19.67,-88.41,-74.2
355.752,762.744,-43.92,21.63,-89.32,-72.17
364.048,775.432,-40.504,23.52,-90.23,-68.88
383.568,780.312,-38.552,25.27,-91.21,-65.03
392.352,784.704,-40.504,26.81,-92.54,-61.67
414.8,796.904,-44.408,28.28,-94.15,-59.15
444.08,833.016,-58.56,29.82,-96.11,-57.12
470.432,880.84,-59.536,31.71,-98.42,-54.18
478.728,947.696,-27.328,34.09,-100.66,-48.44
481.656,1034.072,-6.344,37.03,-102.76,-39.55
500.688,1075.064,7.32,40.53,-104.72,-29.96
523.624,1110.2,15.128,43.89,-106.68,-21.49
518.744,1150.216,38.064,47.11,-108.5,-14.14
520.696,1215.12,24.4,50.12,-110.11,-7.07
527.528,1291.736,4.392,52.99,-111.23,0.84
505.568,1326.384,-19.52,55.65,-112.0,9.66
497.272,1332.24,-25.864,57.33,-112.21,17.85
492.392,1350.784,-39.04,58.1,-111.86,23.59
488.0,1378.6,-87.84,57.82,-111.09,25.97
473.848,1376.648,-107.36,56.84,-109.83,25.48
490.44,1384.456,-134.2,54.81,-107.94,22.54
498.248,1380.064,-157.624,52.29,-105.56,18.76
498.248,1362.008,-161.04,49.14,-102.69,15.82
515.328,1342.0,-171.288,45.22,-99.26,14.21
532.408,1324.432,-197.152,40.74,-95.34,13.02
542.168,1304.424,-228.872,35.77,-91.14,12.88
552.904,1281.488,-249.368,30.38,-86.66,13.79
559.736,1246.352,-255.224,24.43,-81.9,14.91
568.52,1204.384,-253.76,18.06,-77.07,14.42
582.184,1164.856,-262.544,11.13,-72.24,11.13
589.504,1144.848,-270.84,3.99,-67.62,4.9
601.704,1119.96,-260.592,-3.22,-63.0,-2.87
618.784,1107.272,-249.856,-10.22,-58.59,-10.78
630.984,1092.144,-226.432,-16.8,-54.25,-16.24
642.696,1067.256,-187.88,-22.82,-49.98,-17.92
649.04,1039.44,-151.28,-28.21,-45.71,-15.75
656.36,1020.896,-116.144,-33.25,-41.58,-10.36
654.896,994.544,-78.568,-37.59,-37.59,-2.8
635.376,966.728,-41.968,-41.51,-33.81,5.88
609.024,929.64,6.344,-45.01,-30.03,14.63
570.472,892.064,34.16,-48.37,-26.25,21.84
519.72,849.608,53.192,-51.59,-22.4,25.83
457.744,801.296,60.024,-55.02,-18.41,25.9
409.432,758.84,60.024,-58.52,-14.28,22.12
375.76,727.608,44.896,-62.16,-10.08,15.82
347.456,686.128,35.624,-65.8,-5.88,9.45
329.888,660.264,32.696,-69.37,-1.68,5.04
312.808,654.408,34.648,-72.87,2.45,3.22
290.848,651.48,27.328,-76.09,6.51,3.15
284.992,680.272,20.008,-79.03,10.29,3.85
265.96,676.856,20.008,-81.55,13.72,4.69
277.672,677.344,16.104,-84.07,16.45,4.48
305.0,660.752,22.448,-86.59,18.27,2.45
339.648,650.992,9.76,-89.18,18.97,-1.82
351.848,642.208,-1.952,-91.84,18.62,-6.86
363.072,655.872,-3.416,-94.01,17.5,-10.5
373.32,671.0,4.88,-95.69,16.03,-11.62
382.104,688.568,25.864,-96.67,14.21,-10.22
382.104,723.704,42.944,-96.95,12.18,-6.72
360.144,759.328,31.232,-96.46,10.08,-2.1
355.264,783.24,24.4,-95.41,8.12,2.24
369.904,821.304,11.712,-93.87,5.88,4.69
381.616,871.08,-6.344,-91.7,3.22,4.2
387.96,917.928,-24.4,-88.62,0.14,1.54
385.032,947.208,-34.16,-84.84,-3.22,-2.17
383.568,975.512,-28.304,-80.5,-6.58,-5.46
389.912,1020.408,-34.16,-75.46,-10.01,-7.7
395.28,1045.784,-37.576,-69.79,-13.3,-8.96
412.36,1092.632,-53.68,-63.84,-16.66,-9.52
407.968,1135.088,-54.656,-57.19,-20.16,-9.17
406.016,1185.84,-45.384,-49.98,-23.45,-7.98
413.824,1220.0,-46.36,-42.14,-26.81,-6.79
429.44,1244.4,-25.376,-34.02,-30.24,-6.58
444.568,1248.304,-4.392,-25.83,-33.95,-8.05
446.032,1262.456,11.712,-17.71,-37.8,-10.36
434.808,1256.6,31.232,-9.52,-41.51,-11.9
410.408,1241.96,70.272,-1.4,-44.87,-11.34
366.976,1239.52,95.648,6.72,-47.53,-7.7
294.264,1242.936,122.0,14.84,-49.21,-0.7
211.792,1230.248,150.792,23.03,-49.77,8.54
141.52,1186.816,152.744,30.73,-49.07,17.99
89.792,1149.728,109.312,37.59,-47.32,25.9
45.872,1115.08,79.056,43.61,-45.01,31.22
23.424,1095.072,33.184,48.86,-42.14,34.16
9.272,1049.688,13.176,53.55,-38.85,35.49
51.24,1050.176,20.008,57.82,-35.28,36.33
94.184,1046.272,8.784,62.16,-31.99,37.73
184.464,1058.472,36.112,66.64,-28.98,40.25
283.04,1073.6,64.904,71.26,-26.46,43.96
336.232,1037.976,74.664,75.95,-24.29,49.0
412.36,1015.04,70.76,80.08,-22.12,56.91
470.432,999.424,89.304,83.86,-19.88,70.0
552.904,973.072,128.832,87.29,-17.71,89.04
600.728,948.672,139.568,90.3,-15.75,112.77
685.152,955.016,87.352,92.96,-14.42,138.53
714.432,932.568,116.144,95.41,-13.93,163.66
694.912,904.752,120.536,97.09,-13.86,185.22
713.456,876.448,88.816,98.0,-14.0,199.5
705.648,841.8,61.976,98.14,-14.63,204.33
633.912,845.704,47.336,97.72,-15.19,201.74
563.152,828.136,89.304,97.16,-14.84,194.81
516.304,806.664,101.992,96.39,-13.51,183.26
484.096,762.744,92.72,95.27,-11.27,166.6
470.92,714.432,107.848,93.45,-8.33,146.37
465.064,693.448,93.696,91.07,-4.76,125.37
427.488,691.984,77.104,88.27,-0.42,106.33
382.104,687.104,71.736,85.19,4.83,90.51
356.728,678.808,84.912,81.9,10.92,75.46
378.688,681.736,91.256,78.4,17.36,58.59
382.592,684.176,86.864,74.76,23.73,39.9
398.696,679.296,106.872,71.05,30.1,21.42
441.152,679.784,94.672,66.92,36.47,5.46
501.176,691.496,69.296,62.51,42.35,-6.79
526.064,712.968,51.24,57.96,47.74,-14.84
511.912,718.824,65.88,53.48,52.92,-18.69
488.0,718.824,66.856,48.93,58.31,-19.18
480.68,715.896,83.936,44.45,63.84,-17.78
497.76,704.184,92.232,39.9,69.16,-16.24
522.16,687.104,76.128,35.28,74.13,-15.75
532.408,684.176,72.712,30.38,78.54,-16.1
522.16,675.88,86.376,25.48,82.95,-17.08
540.704,704.672,78.08,20.72,87.36,-19.67
541.192,722.728,100.528,16.45,91.42,-26.04
577.792,763.72,141.52,12.53,95.27,-35.63
610.976,793.488,148.352,9.1,98.77,-48.09
699.304,849.12,208.376,6.02,101.57,-62.37
736.392,872.056,170.8,3.5,103.53,-76.09
717.848,885.232,215.208,1.19,105.28,-86.38
706.624,868.64,209.352,-1.19,107.45,-92.61
733.464,887.672,179.584,-3.5,109.69,-95.13
701.744,786.656,186.416,-5.53,111.79,-94.08
676.856,220.088,346.968,-10.29,113.33,-95.06
685.64,955.504,400.16,-43.82,111.79,-129.01
788.12,1053.104,263.032,-58.66,108.5,-136.85
825.208,807.64,265.472,-63.91,106.26,-123.55
746.152,664.168,327.936,-65.31,105.35,-102.83
779.336,859.368,267.424,-66.85,103.04,-85.75
695.888,912.072,258.64,-67.13,99.61,-72.24
686.128,722.24,280.112,-66.85,96.32,-61.6
626.104,694.912,292.312,-66.99,92.82,-54.88
633.912,874.008,246.44,-66.78,88.76,-52.57
673.928,954.528,244.488,-65.8,84.0,-54.53
660.752,842.776,337.208,-63.77,78.26,-60.06
661.728,905.24,242.536,-61.46,72.52,-67.76
665.632,1009.184,208.376,-57.89,66.78,-74.83
557.784,848.144,224.968,-53.97,61.18,-80.99
444.568,736.392,209.84,-51.03,56.7,-85.12
392.84,866.688,149.328,-48.65,53.83,-85.75
421.144,905.728,216.184,-45.22,51.59,-84.49
419.192,835.944,198.616,-41.44,49.21,-84.7
435.296,857.904,149.328,-37.59,46.97,-85.82
474.336,909.632,149.816,-33.04,44.66,-87.85
432.368,891.576,175.192,-28.0,42.28,-90.51
362.584,898.408,164.456,-22.96,40.11,-93.1
308.416,831.064,141.52,-18.2,38.22,-95.34
312.32,856.928,109.312,-14.21,36.54,-96.74
326.472,887.672,86.376,-9.94,34.51,-97.16
331.352,928.176,82.96,-5.25,32.27,-97.44
384.056,965.752,75.64,0.14,29.68,-98.91
433.832,971.608,71.248,6.23,26.46,-102.48
466.528,908.656,46.36,12.88,22.68,-106.33
503.128,703.696,60.024,18.62,18.9,-106.26
579.744,558.272,64.416,21.91,14.91,-99.4
486.048,371.368,83.448,22.68,10.57,-83.58
422.608,467.504,110.776,21.7,7.98,-59.08
396.256,748.104,96.624,21.98,6.51,-31.78
372.832,874.008,154.208,24.15,5.39,-6.09
406.504,907.68,151.768,27.16,4.06,16.31
393.328,885.72,100.04,30.52,2.03,34.3
351.848,857.904,82.472,33.67,0.07,46.83
384.544,907.68,77.104,36.75,-1.96,52.43
425.048,946.232,95.16,40.25,-4.55,51.38
460.672,1001.376,95.16,44.66,-7.63,46.48
465.064,1024.8,76.616,49.98,-10.64,41.09
446.52,1031.144,57.584,55.79,-13.16,38.43
442.128,1046.272,42.944,61.6,-15.12,39.69
445.544,1071.648,46.848,67.13,-16.87,44.17
445.544,1091.656,42.456,72.38,-18.62,50.61
440.176,1111.664,19.52,77.14,-20.65,57.26
432.856,1112.152,-0.488,81.34,-22.89,62.86
425.536,1118.984,-30.744,85.26,-25.2,67.13
400.16,1114.104,-40.992,89.25,-27.23,70.35
395.28,1121.912,-66.368,93.24,-28.49,72.38
382.592,1130.696,-82.96,97.16,-29.05,73.43
362.584,1130.696,-103.944,100.94,-28.63,74.83
342.088,1106.784,-138.104,104.51,-27.65,76.23
356.728,1083.848,-172.752,107.73,-26.32,75.32
372.344,1075.064,-175.68,110.74,-25.06,71.47
392.352,1070.672,-172.752,113.75,-23.87,66.15
404.552,1055.544,-189.832,117.04,-22.33,60.62
408.456,1041.392,-189.344,120.4,-20.58,55.86
414.8,1011.624,-201.056,123.06,-18.55,52.08
414.8,971.608,-217.16,124.81,-16.66,49.14
423.096,936.96,-242.536,125.16,-14.91,47.53
437.248,924.272,-244.976,124.6,-13.44,48.09
484.096,948.184,-247.416,123.83,-12.18,51.59
504.592,973.56,-235.216,123.76,-11.34,57.96
524.112,993.08,-239.608,124.04,-10.99,65.66
556.808,1032.608,-268.4,124.74,-11.06,73.01
553.88,1045.296,-272.792,126.07,-11.76,79.87
558.272,1061.888,-276.696,127.47,-12.74,87.01
549.488,1091.656,-290.848,129.15,-13.93,94.5
534.848,1106.296,-307.928,131.18,-15.4,102.27
539.24,1121.424,-339.16,133.7,-17.5,108.99
531.432,1133.624,-383.568,137.06,-20.93,114.87
515.816,1122.4,-439.2,140.98,-25.41,119.56
486.536,1120.936,-480.68,143.64,-29.82,120.82
459.696,1101.904,-533.872,144.69,-33.53,120.19
409.92,1082.384,-567.056,144.06,-36.4,118.72
343.552,1019.92,-593.896,141.4,-37.94,115.71
329.888,966.728,-671.0,136.29,-38.15,107.17
319.64,948.672,-723.704,129.08,-37.52,90.3
340.136,984.784,-793.0,120.61,-35.77,67.83
363.072,1040.904,-878.4,111.93,-33.04,43.96
415.776,1083.848,-914.512,103.67,-29.61,21.28
490.928,1135.088,-933.544,96.18,-25.83,1.47
555.344,1199.504,-989.664,89.74,-21.98,-13.79
611.952,1255.136,-1029.192,84.49,-18.27,-24.22
679.784,1309.792,-1095.072,80.36,-14.91,-32.34
751.52,1337.12,-1162.904,77.0,-12.39,-41.58
813.496,1328.824,-1215.608,73.99,-10.85,-54.95
898.408,1298.568,-1245.864,70.84,-10.5,-73.01
986.736,1275.144,-1296.128,67.55,-11.34,-94.71
1064.816,1245.864,-1334.68,64.33,-13.37,-117.6
1118.984,1218.536,-1385.432,61.46,-16.31,-137.69
1177.544,1196.088,-1415.688,58.87,-19.74,-153.02
1258.552,1166.808,-1489.376,56.49,-24.08,-165.9
1372.744,1122.888,-1584.048,54.25,-29.75,-178.99
1483.52,1077.992,-1625.528,52.08,-37.17,-192.71
1554.768,1007.72,-1636.264,49.98,-45.92,-204.96
1601.616,929.64,-1640.656,47.74,-55.44,-212.8
1636.264,821.792,-1596.248,45.5,-65.31,-215.95
1672.864,739.808,-1545.008,42.77,-75.25,-215.67
1732.4,695.4,-1505.968,40.11,-85.33,-212.73
1777.784,655.384,-1498.648,37.94,-95.97,-207.55
1839.272,633.912,-1518.168,36.12,-107.03,-200.76
1833.904,585.6,-1427.888,35.07,-118.3,-192.57
1822.68,528.504,-1345.416,34.51,-129.43,-184.03
1821.216,466.04,-1266.36,33.95,-140.35,-176.54
1798.28,391.376,-1177.544,33.53,-150.99,-169.26
1830.0,363.072,-1146.312,33.18,-161.0,-159.32
1819.264,257.176,-1122.4,32.83,-170.73,-144.55
1766.072,154.696,-969.656,31.85,-179.9,-123.62
1713.856,40.016,-838.384,29.89,-188.23,-100.17
1626.992,-75.152,-689.544,26.53,-196.21,-78.82
1560.136,-199.592,-580.72,21.7,-203.84,-62.23
1411.296,-280.6,-426.024,15.61,-211.4,-50.82
1174.616,-336.232,-288.896,8.47,-218.05,-45.78
986.248,-391.864,-219.112,0.7,-223.09,-51.59
871.568,-449.936,-153.72,-7.49,-227.64,-71.75
804.224,-461.16,-87.352,-14.98,-232.33,-101.64
718.824,-439.688,-44.896,-21.0,-236.88,-129.43
653.432,-465.064,6.344,-25.27,-240.66,-144.76
499.712,-454.328,117.608,-28.56,-243.25,-145.95
365.512,-528.016,164.456,-32.2,-244.09,-140.91
327.448,-622.2,158.6,-36.82,-244.37,-140.07
214.232,-623.664,237.656,-42.42,-244.79,-143.85
182.512,-640.256,246.44,-48.09,-244.79,-143.99
119.072,-584.624,335.744,-53.76,-244.72,-135.94
129.808,-569.496,371.856,-59.15,-244.65,-122.08
104.92,-534.36,431.392,-64.47,-245.21,-107.87
98.576,-552.904,458.72,-70.07,-246.33,-96.39
48.8,-549.0,478.24,-76.3,-247.66,-86.66
-64.416,-517.28,559.736,-82.88,-248.57,-75.67
-175.68,-468.968,594.384,-89.53,-248.22,-64.05
-340.624,-436.272,644.648,-96.32,-246.96,-57.4
-477.752,-412.848,652.944,-103.32,-244.72,-62.58
-567.544,-391.376,652.944,-110.39,-242.41,-83.93
-517.28,-399.672,598.776,-117.25,-241.01,-120.75
-326.472,-400.648,507.032,-123.34,-242.27,-165.55
-247.904,-318.664,590.968,-127.82,-246.68,-204.05
-202.032,-245.464,649.528,-129.99,-252.42,-224.35
-181.536,-242.048,680.272,-130.62,-258.09,-226.94
-254.248,-268.4,712.48,-131.46,-263.13,-219.1
-251.32,-396.744,674.416,-133.98,-266.7,-208.88
-269.864,-422.12,768.112,-139.02,-269.92,-200.06
-285.48,-446.032,850.096,-145.6,-272.65,-190.12
-419.68,-433.344,1032.608,-153.23,-274.33,-176.33
-490.928,-506.544,1011.136,-162.12,-274.05,-162.68
-574.376,-588.04,1159.0,-172.69,-272.86,-154.63
-658.312,-599.264,1181.448,-184.73,-270.97,-149.59
-698.328,-585.112,1262.456,-196.98,-268.45,-142.66
-765.672,-536.312,1326.384,-209.37,-265.37,-133.0
-792.512,-540.216,1352.736,-221.97,-262.15,-125.16
-886.208,-550.464,1439.6,-235.55,-259.77,-126.63
-753.472,-595.36,1477.176,-249.9,-259.35,-142.38
-787.144,-644.16,1736.792,-264.11,-262.99,-167.23
-766.648,-653.432,1870.504,-277.55,-268.87,-188.93
-602.68,-727.12,1899.296,-290.15,-277.2,-211.89
-416.264,-802.272,1835.856,-302.05,-289.52,-238.56
-374.296,-891.576,1945.656,-313.18,-304.01,-254.1
-240.584,-964.776,2013.488,-323.96,-318.22,-249.69
-164.944,-1066.768,2213.568,-334.88,-332.64,-237.23
-109.8,-1102.88,2321.904,-346.64,-347.41,-230.3
-95.648,-1134.6,2270.176,-358.47,-362.88,-238.56
-59.048,-1207.8,2167.208,-369.67,-379.47,-263.27
142.984,-1274.168,1998.36,-379.54,-397.46,-292.67
466.04,-1517.192,2009.096,-387.8,-417.27,-310.94
768.112,-1698.728,1950.536,-396.83,-437.78,-304.22
990.64,-1846.592,1853.912,-405.72,-456.82,-267.05
1133.136,-1915.4,1892.464,-417.76,-471.66,-206.85
1117.032,-1895.88,1707.512,-432.04,-482.09,-146.51
1117.52,-1719.224,1440.576,-447.3,-489.02,-115.99
1126.792,-1530.368,926.224,-458.15,-496.44,-133.91
1342.0,-1469.368,616.344,-459.76,-506.45,-188.23
1635.288,-1229.76,157.136,-448.42,-520.45,-244.44
2014.952,-973.072,-424.072,-422.94,-535.43,-271.67
2378.024,-689.056,-1002.84,-386.19,-548.59,-265.09
2559.56,-204.472,-1558.672,-341.11,-557.55,-228.97
2695.712,183.0,-2115.48,-288.75,-559.93,-170.1
2747.928,453.84,-2338.008,-231.14,-557.13,-111.44
2807.464,646.112,-2652.768,-168.21,-552.02,-80.15
2803.56,540.704,-3071.96,-98.7,-546.77,-86.31
2968.016,693.448,-3437.472,-24.57,-540.68,-104.3
3128.08,1158.512,-4015.264,54.6,-533.19,-103.39
3119.784,1585.512,-4955.152,138.25,-523.74,-77.07
2592.256,1432.28,-6095.608,222.53,-511.07,-40.88
1802.184,1524.512,-7002.8,303.38,-491.89,-13.16
1292.224,3006.08,-7254.12,389.97,-466.34,-17.01
1632.36,4921.48,-6887.144,499.24,-439.81,-55.72
3104.656,7571.808,-5928.224,640.71,-421.12,-107.59
5144.496,10577.4,-4054.304,819.42,-421.4,-133.35
6594.832,13115.488,-1997.384,1031.24,-446.95,-120.68
7576.688,15510.104,137.616,1255.31,-493.36,-70.56
8104.216,15977.608,1424.96,1462.79,-556.92,4.9
8461.432,15620.393,1791.936,1621.41,-641.62,78.26
8230.608,14500.92,802.272,1708.0,-742.91,147.84
7185.8,2800.632,51.24,1450.12,-777.7,492.66
3790.784,5626.64,-2305.312,278.25,-757.05,1177.61
548.512,10042.552,-2083.76,389.34,-693.49,124.39
3109.048,7330.248,-2270.176,555.1,-888.58,-665.35
2291.16,4396.392,-3656.584,675.64,-876.33,-573.79
3160.776,3717.584,-3664.88,693.84,-761.53,-13.44
3237.392,4641.368,-3794.688,612.92,-716.17,420.56
1797.792,4927.336,-3481.88,510.93,-710.36,437.22
122.976,4480.816,-3154.92,434.42,-685.16,174.93
-364.536,4374.432,-2575.664,400.4,-619.15,-81.27
249.368,3981.104,-2821.128,391.3,-530.81,-218.12
654.896,3649.264,-3575.576,388.43,-441.49,-274.54
1141.432,3422.344,-4131.408,382.83,-359.45,-300.02
1406.904,3377.448,-4496.432,375.76,-287.21,-318.43
1477.176,3404.288,-4611.112,370.44,-223.65,-333.55
1538.664,3828.848,-4588.176,370.02,-166.04,-351.75
1681.16,4367.112,-4315.384,379.26,-113.96,-379.82
2191.12,4890.248,-3828.36,399.28,-67.13,-417.55
2724.992,5164.992,-3210.552,428.61,-26.95,-450.8
2835.28,5037.136,-2704.008,462.35,9.24,-453.32
2801.608,4870.24,-2338.984,495.39,44.59,-415.45
2958.256,4810.704,-2019.832,526.12,76.44,-353.5
3195.912,4735.552,-1750.944,555.31,99.96,-288.26
3332.064,4376.872,-1500.6,582.05,113.4,-225.19
3305.224,3972.808,-1340.536,603.75,117.95,-159.11
3097.336,3526.776,-1279.536,618.8,115.15,-89.81
2769.888,3121.736,-1327.36,626.29,106.89,-23.87
2349.72,2753.296,-1403.0,626.22,95.2,27.79
1949.56,2457.568,-1412.272,619.36,83.58,56.49
1658.224,2290.184,-1377.624,607.53,74.48,59.92
1534.76,2088.152,-1231.712,592.69,69.44,43.47
1405.928,1732.888,-1064.328,574.63,68.6,17.29
1226.344,1231.224,-958.92,551.95,72.87,-9.17
971.608,816.912,-823.256,523.88,82.74,-29.12
741.272,453.352,-675.392,491.82,97.23,-40.67
576.328,183.488,-525.576,457.24,114.66,-48.44
481.656,2.44,-372.832,421.75,132.93,-58.45
429.928,-125.416,-218.136,386.54,150.71,-72.66
501.176,-160.064,-28.792,352.17,167.02,-91.7
687.104,-125.416,147.376,319.55,180.53,-116.27
839.36,-95.16,307.44,289.38,190.4,-140.7
987.712,-72.712,455.304,261.52,196.91,-157.85
1121.424,-61.488,572.424,235.9,199.78,-167.09
1163.88,-101.016,686.128,212.1,199.29,-169.19
1135.576,-151.28,748.104,189.35,196.56,-163.52
1098.488,-186.904,794.952,167.58,192.15,-151.55
1089.704,-190.808,865.224,147.21,186.13,-137.27
1139.48,-134.2,885.72,128.52,177.94,-124.88
1172.664,-80.032,867.176,111.93,167.3,-116.55
1138.504,-34.648,889.624,97.44,154.7,-113.82
1057.984,15.128,943.792,84.63,141.54,-118.37
968.68,96.136,926.224,73.5,128.52,-130.83
918.904,140.056,927.2,63.91,116.13,-149.03
901.336,175.192,902.312,55.37,104.44,-167.09
844.24,121.024,878.4,47.53,93.38,-177.66
721.264,26.84,914.512,39.48,83.65,-178.78
629.52,8.784,887.672,30.94,75.39,-173.39
627.08,69.296,778.848,22.82,67.76,-168.77
684.176,145.424,619.272,15.75,59.71,-172.41
778.36,202.032,449.936,9.66,50.75,-188.65
783.24,172.752,421.632,4.2,40.88,-214.41
660.752,147.376,492.88,-1.05,31.99,-238.98
570.96,181.536,457.744,-5.88,25.55,-255.5
491.416,204.96,478.24,-9.87,21.35,-265.51
544.12,280.112,451.4,-13.16,18.83,-272.02
728.584,313.296,325.496,-15.68,16.45,-276.43
891.088,328.424,210.816,-17.99,12.81,-275.59
980.88,330.376,189.832,-20.37,8.26,-268.87
964.776,325.984,206.912,-22.82,3.57,-259.0
872.544,355.752,203.496,-25.27,0.0,-249.62
793.0,406.016,206.912,-27.3,-2.03,-244.09
844.24,419.192,263.52,-28.84,-3.08,-242.76
953.552,442.128,278.16,-30.1,-4.62,-241.43
989.664,459.208,283.528,-31.15,-7.0,-233.87
988.2,508.984,261.568,-31.85,-9.31,-218.47
923.296,531.92,275.72,-31.78,-11.13,-199.64
815.448,595.848,277.672,-31.22,-11.69,-183.05
838.872,656.36,277.672,-30.24,-11.41,-173.88
910.12,601.216,283.04,-28.91,-11.76,-168.14
1028.704,571.448,304.024,-28.77,-13.65,-163.87
1157.048,582.672,314.76,-29.4,-17.71,-163.52
1262.944,625.128,344.528,-30.24,-23.73,-167.51
1317.112,751.032,396.256,-30.31,-31.15,-173.25
1314.184,906.216,410.896,-28.63,-38.85,-177.73
1289.296,1021.384,379.176,-24.92,-46.06,-178.57
1218.048,1059.936,372.344,-19.74,-52.22,-174.44
1152.656,1055.056,353.8,-14.21,-56.84,-165.97
1124.352,1010.648,323.544,-9.03,-60.41,-156.03
1082.872,950.136,305.976,-4.62,-63.28,-145.81
1025.288,909.632,308.904,-0.98,-65.59,-135.8
999.424,853.024,301.096,2.17,-67.34,-127.96
967.704,818.376,298.656,4.69,-68.95,-123.13
920.368,811.544,309.392,7.21,-70.35,-118.93
877.424,797.392,309.88,9.87,-71.4,-114.1
829.6,777.384,304.512,12.74,-72.17,-109.41
783.728,752.496,300.12,16.03,-72.73,-104.79
730.048,729.072,281.088,19.53,-73.08,-99.05
671.976,698.816,250.344,23.38,-73.15,-91.28
621.712,667.584,248.88,27.58,-73.08,-82.39
561.2,657.336,253.272,32.2,-73.08,-73.64
495.808,639.28,237.656,37.24,-73.01,-66.85
446.52,605.12,210.816,42.63,-73.15,-64.26
394.792,576.328,198.616,48.3,-73.5,-66.43
353.312,530.456,189.832,53.69,-74.06,-72.31
335.744,458.72,174.216,58.87,-74.76,-80.64
319.152,386.496,154.208,63.42,-75.67,-89.88
297.68,334.768,141.52,67.2,-76.65,-97.3
269.376,305.0,143.96,70.49,-77.21,-101.08
260.592,275.72,128.344,73.29,-77.56,-102.06
280.6,264.496,127.368,75.6,-77.77,-101.36
279.624,246.928,117.12,77.56,-78.05,-98.84
274.256,244.488,127.856,79.03,-78.19,-93.31
268.4,250.344,136.64,80.08,-78.12,-84.42
240.096,267.424,134.688,80.92,-77.84,-73.01
190.32,273.28,126.88,81.41,-77.35,-60.97
153.232,295.24,128.832,81.62,-76.44,-49.98
143.96,310.856,143.472,81.69,-75.39,-41.58
140.544,314.272,172.264,81.27,-74.48,-36.61
129.808,336.232,148.352,80.5,-73.5,-34.79
146.888,390.4,115.168,79.52,-72.38,-34.58
149.816,414.312,118.096,78.61,-71.05,-33.39
158.6,441.64,142.008,77.63,-69.44,-30.24
190.32,530.944,161.04,76.72,-67.69,-25.48
169.336,563.64,142.984,76.02,-65.8,-20.16
196.664,595.848,65.88,75.04,-63.49,-15.61
243.024,625.616,-91.256,73.43,-61.18,-12.74
341.6,693.936,-269.376,71.47,-59.29,-11.62
389.912,831.064,-361.608,69.65,-58.17,-12.18
449.448,1037.488,-361.608,69.16,-57.33,-12.18
596.336,1366.888,-472.384,70.98,-56.98,-10.29
793.488,1675.304,-643.672,76.3,-58.1,-6.02
913.048,1803.16,-690.032,84.28,-61.04,-0.07
965.264,1867.088,-691.984,93.03,-65.1,6.65
1020.896,1916.376,-757.864,101.92,-69.86,13.09
1097.024,1952.488,-869.128,110.81,-75.39,17.71
1165.344,1939.312,-943.792,119.35,-81.76,20.51
1188.28,1870.016,-977.952,126.84,-88.76,23.03
1207.312,1786.08,-1003.328,132.86,-95.76,26.32
1179.496,1668.96,-988.2,136.99,-102.62,30.94
1109.224,1551.352,-1016.016,139.23,-108.85,38.29
1012.6,1418.128,-1031.632,139.58,-114.03,49.7
869.128,1256.6,-1000.888,137.83,-118.02,64.05
738.832,1136.064,-980.88,133.91,-120.61,79.03
615.856,1042.368,-924.272,128.31,-121.94,93.31
510.936,951.6,-855.952,121.52,-122.29,105.91
417.24,857.416,-791.048,113.75,-121.73,115.29
352.824,784.216,-732.976,105.21,-120.61,120.26
289.872,705.648,-667.584,96.39,-119.21,120.68
232.288,634.888,-607.56,87.43,-117.53,116.2
174.216,565.104,-582.184,78.47,-115.64,107.17
132.248,521.672,-543.632,69.72,-113.33,94.99
107.36,492.88,-495.32,61.6,-110.88,82.11
101.992,466.04,-439.2,54.32,-108.5,69.72
100.04,429.44,-378.688,47.88,-106.26,57.82
98.088,386.984,-331.84,42.21,-104.23,46.41
86.864,345.504,-270.352,37.1,-102.41,36.05
92.72,319.64,-227.408,32.48,-100.66,27.65
68.808,255.224,-135.176,28.35,-99.12,22.05
51.728,216.672,-56.608,24.36,-97.44,19.81
34.16,208.376,-50.264,20.51,-95.55,20.3
29.28,241.56,-84.912,17.15,-93.59,22.47
7.808,270.352,-121.512,14.42,-91.56,24.78
-48.312,324.032,-203.984,12.18,-89.25,26.04
-128.344,452.864,-394.792,10.64,-86.24,26.18
-157.136,630.008,-620.248,10.43,-82.39,25.62
-80.52,814.472,-829.112,11.9,-78.47,23.66
52.704,917.928,-1044.808,14.77,-75.81,17.85
169.824,776.408,-1220.0,17.64,-75.04,7.21
305.0,459.208,-1269.776,17.85,-76.09,-6.3
436.272,116.144,-1220.488,13.58,-78.89,-20.37
558.76,-65.88,-1156.56,5.39,-83.3,-31.08
636.352,-55.632,-1101.904,-4.55,-88.76,-34.58
645.624,100.528,-1094.584,-13.93,-94.57,-28.98
595.848,320.128,-1073.112,-21.14,-99.68,-12.53
474.336,600.728,-1098.976,-25.55,-103.18,15.05
332.328,840.336,-1184.864,-26.95,-104.23,53.62
208.864,944.768,-1203.896,-26.32,-102.9,99.4
116.144,945.256,-1186.328,-25.48,-99.89,145.18
57.584,863.76,-1127.28,-25.9,-96.32,183.75
31.232,764.208,-1059.448,-28.35,-92.89,210.49
17.08,672.464,-1015.528,-32.69,-90.09,224.77
-1.464,593.896,-936.96,-38.64,-87.85,228.34
-30.256,559.736,-859.368,-45.57,-86.03,223.65
-74.664,562.176,-790.56,-52.64,-84.14,213.64
-118.584,607.56,-740.296,-59.22,-81.9,201.39
-149.816,673.44,-720.288,-64.68,-79.24,188.86
-144.448,768.112,-694.912,-68.6,-76.3,177.87
-124.44,849.608,-669.048,-70.77,-73.5,169.19
-111.264,871.568,-632.448,-71.47,-70.98,162.47
-102.48,863.76,-590.968,-71.47,-68.6,157.64
-87.352,858.392,-589.016,-71.19,-66.29,154.63
-75.152,837.408,-582.184,-70.77,-64.12,152.81
-75.64,799.832,-542.168,-70.56,-62.09,151.06
-88.328,750.544,-501.664,-70.7,-60.06,148.75
-111.264,718.824,-472.872,-71.26,-57.82,145.74
-111.752,700.28,-471.896,-71.96,-55.51,141.75
-123.952,679.296,-453.84,-72.87,-53.2,136.5
-124.928,674.416,-446.032,-73.92,-50.89,130.48
-104.432,661.728,-447.008,-74.97,-48.65,124.32
-71.736,636.352,-459.208,-76.02,-46.55,117.74
-61.488,606.584,-467.992,-77.42,-44.87,111.44
-37.088,581.208,-466.04,-79.03,-43.33,106.75
11.224,567.056,-467.016,-80.85,-42.21,103.32
56.12,569.984,-456.28,-82.6,-41.79,100.73
94.184,574.864,-436.76,-84.07,-42.14,98.84
140.544,576.816,-427.488,-85.33,-43.12,97.23
187.392,581.208,-418.216,-86.38,-44.8,94.57
237.168,588.528,-415.776,-87.29,-47.25,90.3
285.48,604.144,-422.12,-87.99,-50.4,85.26
329.888,637.328,-433.832,-88.27,-54.11,80.43
361.608,662.704,-432.856,-88.06,-58.17,76.72
401.136,699.792,-436.76,-87.36,-62.37,74.34
419.192,730.536,-437.248,-86.03,-66.64,73.36
420.656,778.848,-418.216,-84.07,-70.84,73.85
444.568,838.872,-415.288,-81.48,-74.69,75.25
472.384,897.92,-429.928,-78.33,-78.47,76.16
473.848,920.368,-433.344,-74.62,-82.25,76.16
457.256,923.296,-435.296,-70.91,-85.54,76.16
455.304,931.104,-435.784,-67.48,-88.2,76.51
453.84,928.176,-442.128,-64.19,-90.37,77.28
450.912,941.352,-457.256,-61.04,-91.98,79.52
444.08,958.432,-480.68,-58.03,-92.96,84.0
438.224,989.664,-510.448,-54.95,-93.24,90.02
434.808,1026.752,-550.464,-51.66,-93.1,96.53
420.656,1065.792,-579.256,-48.09,-92.4,102.76
408.456,1108.736,-610.0,-44.17,-91.35,108.15
394.792,1135.576,-628.056,-39.76,-90.09,111.51
366.488,1129.232,-596.824,-34.93,-88.69,112.0
361.608,1117.52,-542.168,-30.1,-87.22,109.2
364.536,1090.68,-482.632,-25.27,-85.96,102.76
358.192,1054.08,-418.216,-20.65,-84.98,92.89
362.584,998.936,-378.688,-16.45,-84.21,80.64
372.344,920.368,-349.896,-12.95,-83.44,67.69
366.976,822.28,-339.16,-10.71,-82.53,55.65
353.8,728.096,-342.088,-9.8,-81.27,46.13
362.584,653.432,-378.688,-10.22,-79.45,39.83
379.176,600.24,-437.248,-11.97,-77.28,36.68
395.28,570.472,-493.368,-14.63,-74.9,36.33
405.04,554.368,-531.432,-18.06,-72.31,38.57
443.592,560.224,-569.008,-21.98,-69.65,42.35
513.864,586.088,-609.512,-25.97,-67.48,45.43
589.992,614.88,-620.248,-29.75,-66.29,46.2
654.896,644.648,-608.048,-33.18,-66.15,43.89
710.528,699.304,-601.704,-36.12,-67.06,38.08
749.568,740.784,-573.888,-38.15,-68.6,28.98
777.384,772.016,-526.064,-39.48,-70.7,18.69
796.904,782.752,-495.32,-40.18,-73.08,10.15
825.696,763.72,-472.384,-40.53,-75.32,5.46
837.896,752.008,-418.216,-40.88,-77.63,5.53
832.04,751.52,-391.864,-41.44,-79.66,11.13
833.016,747.128,-369.416,-42.07,-81.34,21.7
813.496,732.488,-335.256,-42.91,-82.67,35.35
780.8,732.0,-327.448,-44.24,-83.58,50.4
739.32,721.264,-305.976,-45.85,-83.93,64.96
711.016,705.648,-278.16,-48.02,-84.07,77.0
682.224,695.4,-243.024,-50.47,-84.0,85.26
650.992,685.152,-215.208,-53.13,-83.86,89.67
616.344,681.248,-194.712,-55.86,-83.65,90.86
574.376,683.688,-174.704,-58.45,-83.16,90.16
530.456,691.984,-164.456,-60.83,-82.25,88.76
500.688,702.232,-163.968,-62.86,-80.92,87.01
476.288,705.16,-169.336,-64.61,-79.24,84.98
460.672,708.576,-179.584,-66.01,-77.28,83.02
453.84,711.504,-183.976,-67.06,-75.32,81.34
446.52,711.992,-195.688,-67.83,-73.15,79.94
443.592,710.04,-215.696,-68.53,-71.05,78.26
451.4,711.016,-226.432,-69.02,-69.02,76.37
458.232,728.096,-235.216,-69.16,-67.13,74.34
465.064,742.736,-251.32,-69.02,-65.52,72.31
459.696,754.448,-252.296,-68.53,-63.91,70.07
453.84,771.04,-276.208,-67.83,-62.51,67.48
449.936,775.92,-298.656,-66.85,-61.11,64.33
447.496,771.528,-315.736,-65.8,-59.64,60.97
443.104,763.72,-320.616,-64.75,-58.24,58.38
441.152,758.352,-324.032,-63.91,-56.77,56.28
435.784,764.208,-340.624,-63.0,-55.16,54.6
446.52,784.216,-360.144,-62.09,-53.62,53.13
441.64,813.984,-400.16,-61.11,-52.01,52.43
436.272,831.552,-428.952,-59.92,-50.47,51.94
433.832,836.432,-455.304,-58.66,-48.93,49.84
426.512,838.384,-469.456,-57.54,-47.53,45.85
419.68,855.464,-477.264,-56.35,-46.06,40.39
423.584,883.28,-511.424,-55.09,-44.66,34.51
430.904,913.048,-584.624,-53.55,-43.33,28.56
421.632,929.64,-665.144,-51.8,-42.0,23.8
425.536,966.24,-750.544,-49.84,-40.67,20.3
472.872,1010.16,-781.776,-47.46,-39.83,15.68
543.632,1043.832,-743.224,-44.52,-40.11,7.7
613.416,1036.512,-675.392,-40.95,-41.65,-3.43
653.432,985.272,-612.928,-37.45,-44.24,-14.91
632.448,912.072,-569.496,-34.44,-46.9,-22.75
564.616,852.536,-576.816,-32.13,-48.65,-23.17
488.488,827.16,-627.08,-30.52,-48.79,-15.26
421.144,832.04,-696.864,-29.33,-47.25,-0.91
370.392,852.048,-744.2,-28.14,-44.52,16.38
339.16,881.816,-784.704,-26.95,-41.09,32.69
323.544,903.288,-792.024,-25.62,-37.66,44.52
326.472,908.168,-778.36,-24.15,-34.65,48.79
346.48,907.192,-761.768,-22.75,-32.55,44.66
355.264,882.792,-743.224,-21.42,-31.43,33.67
360.632,848.144,-717.36,-20.23,-30.94,18.9
366.488,813.008,-690.52,-19.25,-30.73,3.99
376.736,777.384,-678.808,-18.48,-30.59,-7.84
377.712,751.032,-667.584,-17.71,-30.31,-14.63
379.664,735.416,-659.776,-16.94,-29.68,-16.17
383.568,737.856,-652.944,-15.96,-28.98,-13.3
384.544,740.784,-639.768,-14.7,-28.07,-7.42
392.84,749.08,-630.008,-13.09,-27.23,-0.42
396.744,763.232,-613.416,-11.06,-26.67,5.95
406.016,771.04,-576.816,-8.68,-26.53,10.22
407.968,777.872,-533.872,-5.88,-26.74,12.39
406.504,789.096,-496.784,-2.73,-27.37,13.16
391.376,797.392,-455.792,0.77,-28.07,12.74
382.104,815.448,-438.224,4.62,-28.77,11.55
356.24,812.52,-419.68,8.89,-29.4,10.01
335.256,806.176,-385.032,13.23,-29.68,8.82
318.176,791.048,-381.616,17.43,-29.68,7.77
305.976,770.552,-371.856,21.7,-29.47,6.44
295.24,744.688,-352.336,25.62,-29.05,4.13
289.384,730.048,-348.92,29.19,-28.42,1.26
281.576,706.136,-349.896,32.41,-27.58,-1.89
275.232,675.88,-326.96,35.28,-26.39,-4.83
280.6,656.848,-316.712,37.8,-25.06,-7.14
283.04,632.448,-319.152,40.11,-23.45,-8.96
270.84,602.192,-290.848,42.14,-21.7,-10.36
260.104,584.136,-265.96,43.89,-19.53,-11.62
264.496,575.352,-250.832,45.64,-17.15,-13.72
286.944,550.464,-239.608,47.25,-14.77,-17.5
296.216,543.632,-238.632,48.72,-12.39,-22.26
295.24,558.272,-249.856,50.33,-9.73,-27.3
299.632,578.28,-252.784,52.22,-6.65,-32.97
328.424,613.904,-301.096,54.6,-3.08,-39.2
338.672,634.888,-305.976,57.82,1.05,-43.75
354.776,654.896,-295.24,61.53,5.95,-44.38
404.064,677.344,-312.32,65.87,11.55,-40.39
447.496,694.424,-325.496,70.56,17.36,-33.6
507.032,699.792,-376.248,75.32,23.52,-26.6
546.072,698.328,-416.752,79.66,29.96,-20.58
598.776,691.496,-501.664,83.58,36.96,-14.63
679.784,715.408,-501.176,86.94,44.17,-8.4
732.0,726.144,-535.824,89.88,51.31,-1.96
799.832,747.128,-567.544,92.4,58.45,3.85
868.64,759.328,-586.088,94.29,65.38,7.28
927.688,779.824,-630.984,95.69,71.82,8.05
951.112,798.856,-654.896,96.53,78.19,8.61
952.576,817.888,-680.76,96.88,84.84,10.92
956.48,826.672,-713.456,96.74,91.77,15.26
959.408,818.864,-723.704,96.18,98.56,20.09
942.328,802.76,-727.608,95.06,105.14,24.36
917.44,776.896,-711.992,93.38,111.58,27.93
878.888,742.248,-704.672,90.79,117.88,30.52
835.456,702.72,-688.08,87.43,123.9,31.15
786.656,658.312,-675.88,83.09,129.78,28.77
741.272,625.128,-677.344,77.84,135.45,23.73
681.248,591.456,-679.296,71.75,141.05,17.43
643.184,576.328,-658.8,65.03,146.44,11.06
614.392,558.272,-650.504,57.89,151.55,4.62
575.352,546.072,-619.272,50.68,156.17,-2.17
548.512,531.432,-585.6,43.33,160.44,-9.66
565.104,535.824,-555.832,35.84,164.22,-18.27
571.936,518.256,-545.584,28.28,167.09,-27.51
582.672,484.584,-514.352,20.58,169.12,-36.54
564.616,440.664,-496.296,12.46,170.45,-45.5
564.128,392.84,-497.272,3.85,171.15,-54.53
566.08,366.0,-452.376,-4.83,171.36,-62.65
584.624,363.56,-406.016,-13.51,171.01,-69.23
606.584,355.752,-384.056,-21.56,170.17,-73.5
635.864,379.664,-366.488,-29.19,168.77,-76.23
684.664,386.496,-339.648,-36.05,166.81,-78.68
676.856,408.944,-345.504,-42.21,164.43,-80.15
672.464,485.56,-257.176,-47.32,162.12,-79.73
658.8,509.96,-227.896,-50.89,159.88,-78.96
697.352,549.0,-213.256,-53.62,157.78,-78.19
729.56,589.992,-183.976,-55.37,155.12,-77.28
784.216,631.472,-162.504,-56.42,152.18,-76.23
781.776,682.712,-170.312,-56.7,148.89,-74.9
785.192,614.88,-143.96,-56.35,145.74,-72.45
609.024,-462.136,13.664,-60.34,141.54,-75.25
675.88,842.776,45.384,-102.69,127.47,-125.72
565.592,1053.592,-78.08,-117.95,114.8,-136.5
834.968,473.36,-25.376,-117.74,111.58,-111.72
653.432,589.504,18.056,-115.08,109.06,-79.8
910.12,1018.944,-101.992,-109.69,106.33,-50.96
873.52,937.448,-77.104,-102.34,102.41,-28.91
843.264,653.432,-23.912,-94.78,97.23,-15.33
771.528,658.8,12.688,-88.62,91.98,-15.47
671.976,1045.784,-33.672,-87.85,87.15,-36.47
779.336,866.688,-15.128,-82.6,81.69,-54.39
588.528,665.632,0.0,-76.3,75.6,-70.56
553.88,888.16,-65.88,-71.12,71.05,-87.78
559.248,967.216,-84.912,-64.89,67.41,-102.41
552.904,718.824,-104.432,-58.38,64.4,-111.3
541.192,791.048,-114.68,-52.43,61.81,-114.24
525.576,863.272,-136.64,-46.34,59.36,-113.89
606.584,829.6,-153.72,-40.39,56.56,-112.63
607.56,743.712,-171.288,-34.93,52.99,-110.18
576.816,720.776,-184.952,-30.31,49.35,-105.56
547.536,747.616,-201.056,-26.32,46.13,-98.91
508.008,729.56,-194.712,-22.54,42.98,-91.63
516.792,751.52,-204.472,-18.76,39.55,-85.33
534.36,763.232,-202.032,-14.49,35.35,-81.2
549.488,754.936,-208.376,-10.5,30.52,-78.12
560.224,806.176,-205.448,-6.02,25.41,-73.36
546.072,830.088,-194.224,-0.91,20.16,-65.17
575.84,841.312,-170.312,4.69,15.05,-53.76
615.856,865.224,-178.608,10.85,9.59,-40.11
625.616,880.84,-162.504,17.71,3.5,-24.99
642.208,936.96,-126.392,24.92,-3.08,-10.71
620.248,928.176,-89.304,32.34,-10.01,1.05
568.52,923.296,-83.448,39.2,-16.59,10.85
536.312,928.664,-80.032,45.78,-22.47,18.69
538.264,951.112,-85.4,52.5,-27.86,23.87
540.704,979.904,-84.424,59.5,-33.04,26.74
502.64,996.984,-90.28,66.92,-37.87,30.38
454.328,1038.464,-93.696,75.11,-41.51,37.1
427.976,1083.848,-76.128,84.35,-44.38,44.59
373.32,1111.176,-63.928,94.15,-46.9,49.21
316.224,1150.704,-52.216,104.02,-48.93,49.0
260.104,1188.28,-50.264,113.89,-50.4,45.01
232.288,1249.768,-34.648,123.97,-51.03,38.71
255.224,1341.024,-2.928,134.68,-50.89,31.78
295.24,1394.216,19.52,146.37,-50.61,26.67
328.424,1456.192,48.312,158.76,-50.75,25.55
328.424,1503.04,59.048,172.27,-51.38,29.47
309.88,1513.776,36.6,185.99,-51.73,36.68
286.456,1537.688,-7.808,199.01,-51.52,44.94
273.768,1565.992,-53.68,211.19,-51.1,52.85
240.584,1537.688,-133.712,221.55,-50.54,58.45
236.192,1539.64,-262.056,228.83,-49.63,60.2
163.48,1501.088,-364.048,233.59,-49.07,60.55
120.536,1507.92,-499.224,234.22,-46.97,57.47
80.032,1469.368,-600.728,230.79,-43.26,48.44
128.832,1479.616,-733.952,223.58,-37.94,30.94
178.608,1508.408,-812.032,213.64,-31.64,5.39
264.008,1580.632,-927.688,202.23,-24.43,-24.57
289.872,1689.456,-1018.944,190.68,-16.45,-52.57
334.768,1790.472,-1118.008,179.55,-7.56,-75.6
389.424,1835.368,-1239.52,168.7,1.54,-96.95
545.584,1851.472,-1280.024,157.85,9.66,-121.24
736.88,1897.832,-1308.328,146.79,15.33,-150.36
885.72,1970.544,-1377.136,136.36,18.27,-179.48
1050.664,2026.664,-1457.656,127.12,18.83,-203.63
1190.232,2052.528,-1453.264,119.42,16.8,-221.55
1343.952,2030.08,-1502.552,112.91,12.32,-233.8
1528.904,1965.664,-1483.032,107.66,4.97,-241.36
1664.568,1923.696,-1486.936,103.6,-5.18,-242.55
1737.768,1840.248,-1457.656,100.66,-17.43,-236.95
1843.664,1725.08,-1380.064,98.21,-30.87,-228.2
1988.6,1469.856,-1424.96,95.48,-45.36,-220.29
1899.296,1315.648,-1448.384,91.49,-60.13,-211.96
1817.312,1194.624,-1362.496,87.36,-73.01,-195.02
1802.672,1098.488,-1208.288,83.3,-84.7,-169.96
1981.768,1002.352,-1137.528,79.52,-97.72,-148.47
2117.432,862.296,-953.064,75.81,-114.24,-135.94
2057.896,691.984,-789.096,71.54,-132.79,-126.84
1915.4,524.112,-632.448,66.36,-150.85,-115.08
1862.208,377.712,-508.984,60.13,-167.72,-102.06
1823.168,244.976,-333.304,52.78,-184.52,-93.31
1740.208,121.512,-160.064,44.8,-201.6,-91.91
1615.28,37.576,-51.728,36.54,-218.12,-97.09
1410.32,-63.928,-21.96,28.49,-233.17,-106.05
1183.4,-107.36,71.736,20.58,-245.28,-115.15
1020.896,-154.208,101.016,13.16,-254.31,-125.02
926.224,-210.816,97.6,6.44,-261.24,-136.92
845.216,-230.336,142.984,0.56,-266.56,-148.05
735.416,-238.632,207.4,-4.34,-270.48,-153.79
638.304,-270.352,211.304,-8.26,-272.65,-153.72
488.976,-294.264,300.608,-11.97,-273.35,-149.52
427.0,-332.328,344.04,-15.68,-272.65,-143.22
305.488,-359.168,432.856,-19.6,-271.32,-136.85
232.288,-367.464,469.944,-23.73,-269.08,-130.9
222.528,-347.456,503.616,-27.93,-266.77,-127.12
224.48,-329.4,508.008,-31.71,-265.02,-124.39
187.392,-284.992,519.72,-34.86,-263.76,-118.79
121.512,-217.648,555.832,-37.31,-262.36,-109.9
110.776,-225.456,531.92,-39.55,-261.03,-103.46
37.088,-253.76,587.064,-42.21,-260.19,-104.44
-39.528,-328.912,604.144,-45.5,-259.35,-112.7
-119.56,-347.944,669.048,-49.42,-258.44,-125.09
-120.048,-420.656,674.904,-53.62,-257.46,-138.67
-133.224,-454.328,708.088,-58.17,-257.04,-150.01
-139.568,-552.416,665.144,-63.35,-256.83,-155.96
-132.736,-610.0,634.888,-69.79,-256.48,-154.63
-259.128,-676.856,657.336,-77.7,-255.78,-145.95
-305.488,-715.896,614.392,-87.29,-254.24,-134.12
-533.872,-698.328,705.16,-98.07,-252.49,-124.25
-628.544,-658.8,740.784,-109.2,-249.83,-118.16
-754.936,-598.288,872.056,-119.91,-247.24,-117.95
-720.776,-579.256,795.44,-129.99,-244.58,-122.43
-722.24,-531.92,866.2,-139.16,-242.62,-127.05
-805.688,-472.872,948.184,-147.63,-240.45,-124.95
-789.096,-473.848,927.688,-155.4,-237.51,-119.07
-803.248,-484.584,1015.528,-163.73,-234.85,-118.44
-674.416,-475.8,1010.16,-172.34,-232.89,-124.46
-674.416,-437.736,1186.328,-179.97,-232.26,-129.71
-668.56,-395.768,1259.528,-186.48,-231.14,-125.02
-656.848,-355.264,1338.584,-192.22,-229.6,-113.89
-560.224,-371.856,1290.272,-197.82,-228.48,-107.38
-480.192,-435.296,1313.208,-203.84,-229.04,-108.64
-750.544,-463.6,1515.728,-210.56,-229.81,-106.89
-801.784,-536.312,1515.24,-218.05,-228.48,-104.23
-874.984,-621.712,1564.528,-227.15,-228.76,-122.36
-813.496,-672.464,1499.136,-237.3,-232.47,-165.13
-889.136,-771.04,1611.376,-247.31,-241.01,-220.64
-815.448,-720.288,1597.224,-257.11,-252.7,-276.57
-385.032,-743.712,1434.232,-265.16,-269.5,-334.25
-229.848,-933.056,1561.6,-271.25,-292.88,-378.91
-94.672,-1131.672,1606.984,-277.48,-317.66,-383.6
91.256,-1387.872,1708.488,-285.95,-342.23,-355.46
293.776,-1440.088,1710.44,-298.41,-367.85,-319.2
578.768,-1536.712,1728.984,-312.83,-395.57,-287.56
649.04,-1660.664,1893.928,-329.77,-425.25,-259.07
717.36,-1870.016,1926.624,-348.6,-454.51,-230.3
710.04,-1959.32,1867.088,-369.18,-481.95,-203.35
758.84,-2129.144,1748.504,-389.41,-506.8,-181.44
799.832,-2208.688,1583.072,-408.03,-528.92,-167.65
958.92,-2297.504,1234.152,-422.52,-548.52,-161.56
1151.68,-2114.504,991.128,-431.13,-566.44,-159.88
1589.416,-1914.912,432.368,-430.29,-584.29,-165.69
2212.592,-1581.12,-51.728,-418.39,-605.43,-190.05
2686.928,-1291.248,-543.632,-392.0,-632.45,-226.8
3393.064,-867.664,-1041.88,-350.77,-661.92,-249.41
3991.352,-571.448,-1483.032,-295.89,-691.74,-240.94
4281.224,67.832,-1928.088,-231.84,-717.5,-191.8
4311.48,424.56,-2564.44,-162.26,-735.77,-117.74
4066.504,713.456,-2994.856,-91.35,-746.48,-48.37
3591.68,697.84,-3568.744,-20.09,-749.35,-3.92
3057.808,1005.28,-4180.208,54.32,-743.75,6.65
2602.016,1115.08,-4989.8,136.92,-728.84,-3.92
1440.088,1207.8,-6255.672,227.29,-702.31,-20.23
517.28,2548.824,-7362.944,327.53,-658.77,-46.76
991.616,5297.24,-7356.112,454.37,-605.08,-97.3
2344.352,8684.448,-6579.216,623.91,-556.36,-165.27
3999.16,12729.48,-4848.768,840.14,-518.07,-215.46
5507.08,15548.168,-2567.368,1097.25,-490.0,-251.93
6892.512,15977.608,209.84,1370.95,-462.77,-271.95
8076.4,15978.096,2970.456,1627.78,-434.77,-247.03
6793.448,15364.68,3066.104,1812.79,-415.38,-167.37
6262.992,8848.416,2238.944,1869.84,-400.82,-18.9
3088.552,2593.72,-3262.768,888.79,-321.16,885.5
4381.752,7267.784,-4370.04,465.64,-352.52,660.24
2598.112,6761.24,-2388.76,648.48,-408.59,-188.58
4349.056,5715.456,-2853.336,727.51,-567.49,-567.91
4894.152,4124.088,-2100.84,769.65,-514.29,-323.82
4914.648,4372.48,-2114.504,744.94,-479.85,191.45
4330.512,4777.52,-1897.832,679.14,-507.99,556.99
2731.824,4976.136,-1701.656,600.11,-558.74,586.67
1376.648,4168.496,-1395.68,535.71,-584.85,376.18
780.8,3533.12,-1640.656,495.67,-568.61,135.1
1054.08,3096.36,-2034.96,473.41,-521.08,-9.24
1490.84,3458.944,-2181.848,461.23,-462.98,-67.13
1723.128,3625.84,-2108.16,458.15,-406.56,-81.69
1732.888,3399.896,-2344.352,459.9,-354.06,-87.85
1636.752,2984.608,-2694.736,460.46,-304.43,-101.15
1554.768,2780.136,-3093.92,456.75,-256.27,-122.71
1622.112,2813.808,-3213.968,450.87,-210.35,-157.36
1742.16,2783.552,-3196.888,446.18,-167.58,-206.43
1876.848,2854.8,-3091.968,443.17,-126.7,-251.72
2120.848,2916.288,-2939.712,441.98,-88.34,-280.77
2296.04,2939.712,-2720.6,441.91,-53.62,-294.07
2217.96,2716.696,-2597.624,441.35,-22.12,-289.38
2036.424,2537.6,-2518.08,438.41,8.12,-264.18
1931.504,2514.664,-2449.76,434.0,35.77,-228.41
1836.344,2513.2,-2329.224,430.5,59.57,-194.88
1801.696,2478.064,-2222.352,427.77,79.31,-170.52
1909.056,2382.416,-2067.168,425.18,94.99,-157.36
1894.416,2132.072,-1883.192,421.4,106.68,-150.57
1799.256,1884.168,-1783.152,414.75,116.41,-139.79
1742.16,1718.736,-1670.912,405.86,124.88,-120.75
1650.416,1509.384,-1618.696,395.36,131.18,-98.7
1482.544,1331.752,-1609.912,383.11,136.01,-77.98
1402.512,1178.032,-1606.496,369.18,140.14,-62.72
1439.112,1100.928,-1533.784,353.78,143.08,-56.21
1513.776,1016.992,-1399.096,337.75,144.2,-56.7
1518.168,893.528,-1297.592,321.3,143.85,-57.26
1465.464,796.416,-1170.224,304.71,143.08,-52.85
1343.952,702.232,-1047.248,288.54,142.52,-42.0
1172.664,642.208,-941.352,273.28,142.59,-27.3
1026.264,587.552,-856.928,259.21,143.5,-14.42
898.408,588.04,-725.168,246.26,145.04,-6.65
774.456,562.664,-633.424,234.5,147.0,-5.04
647.576,565.104,-565.104,223.72,149.8,-10.29
517.28,571.448,-442.616,213.92,153.58,-21.84
398.208,553.88,-363.56,204.75,158.62,-38.85
291.336,492.392,-271.816,195.37,164.92,-63.21
195.2,438.712,-176.656,185.01,172.62,-94.22
129.32,418.216,-100.528,173.53,181.65,-128.66
109.8,392.84,-45.872,161.07,191.59,-162.82
82.472,404.552,29.768,147.91,201.95,-193.13
84.912,413.336,88.328,134.33,212.24,-218.33
125.416,415.776,157.136,120.4,221.9,-240.52
208.864,400.648,215.208,105.98,229.95,-261.87
261.08,414.8,252.784,91.0,236.11,-280.63
256.688,439.688,313.784,75.95,240.66,-293.65
244.976,464.088,369.904,61.39,243.95,-301.91
266.936,500.688,384.544,47.39,245.91,-309.05
302.56,503.616,389.912,34.23,246.12,-317.38
327.936,487.512,473.848,21.42,244.72,-326.83
336.232,452.376,549.0,8.75,241.85,-336.28
358.68,409.432,586.088,-3.92,237.72,-344.61
359.168,397.232,650.504,-16.45,232.26,-350.56
345.992,401.624,736.88,-28.28,225.82,-353.36
356.728,423.584,801.784,-38.78,218.61,-351.82
411.872,465.064,838.384,-47.81,210.56,-345.8
405.04,430.904,892.552,-54.95,201.46,-336.56
413.824,401.624,962.824,-60.9,191.94,-325.71
469.944,412.848,1000.4,-65.73,181.86,-314.51
571.936,413.336,1073.6,-69.09,171.08,-303.24
672.464,447.008,1140.456,-71.05,159.32,-291.41
757.376,552.416,1141.92,-71.47,146.93,-278.39
763.72,616.344,1108.736,-69.58,134.47,-264.04
775.432,623.176,1167.296,-65.87,122.78,-248.08
840.336,729.56,1259.04,-60.69,111.79,-230.3
906.216,865.712,1340.536,-53.2,100.94,-210.91
998.448,1005.28,1404.464,-42.84,90.3,-188.3
990.152,1058.96,1457.168,-29.89,80.15,-159.67
910.12,1075.552,1507.432,-15.68,71.54,-122.99
839.36,1038.464,1493.28,-0.84,64.96,-81.13
787.144,896.944,1401.048,13.23,59.43,-40.67
707.6,839.848,1311.744,25.48,54.11,-7.98
625.128,799.344,1198.04,36.33,48.65,12.39
623.664,793.0,1158.512,46.27,42.7,19.11
532.896,874.496,1158.024,55.58,35.77,14.98
422.608,879.376,1102.392,64.96,28.98,5.04
345.992,870.104,1020.408,73.78,22.82,-7.49
237.656,790.072,921.832,81.69,17.5,-19.88
140.544,698.816,791.048,87.99,13.44,-29.47
97.6,623.176,665.144,92.82,10.5,-34.65
49.288,585.6,604.144,96.74,8.19,-33.81
-12.688,565.104,568.52,100.31,6.37,-27.02
-59.536,564.616,538.264,103.74,4.9,-16.94
-91.744,563.64,514.84,106.96,3.43,-7.98
-115.168,546.56,463.112,109.76,1.68,-4.2
-114.192,548.512,426.024,111.72,-0.42,-7.14
-117.608,530.944,403.088,113.12,-2.73,-15.26
-109.8,516.792,392.352,113.96,-4.97,-25.9
-87.352,510.448,386.008,114.38,-7.28,-37.17
-70.76,510.448,380.64,114.59,-9.38,-47.53
-53.68,485.072,345.992,114.38,-11.34,-55.3
-35.624,477.752,320.616,113.75,-13.09,-59.71
-8.784,469.456,280.6,112.7,-14.77,-61.25
19.52,472.872,246.44,111.44,-16.45,-60.69
33.672,509.472,282.064,110.18,-18.13,-58.1
57.584,569.008,297.68,109.2,-19.88,-54.04
75.64,608.048,304.512,108.78,-21.63,-49.98
83.936,643.672,301.096,108.5,-23.59,-47.11
86.376,701.744,299.632,108.29,-25.69,-45.43
88.328,765.184,302.56,108.43,-27.86,-44.87
89.304,841.8,303.048,108.78,-30.1,-44.59
81.496,915.0,312.808,109.62,-32.34,-43.47
81.984,955.504,303.536,110.74,-34.51,-41.58
81.008,992.592,249.368,111.58,-36.75,-39.2
110.288,1045.296,203.496,112.14,-39.06,-36.75
148.84,1107.76,196.664,112.49,-41.72,-35.0
192.76,1214.144,225.944,113.05,-44.73,-33.18
250.832,1341.024,303.536,114.1,-48.3,-29.82
297.192,1427.888,393.328,116.06,-52.5,-25.41
321.104,1478.64,414.8,118.44,-57.26,-21.0
332.816,1482.544,403.576,120.75,-62.37,-16.1
306.464,1424.472,362.584,122.36,-67.34,-9.17
274.744,1372.256,300.608,122.92,-71.89,0.7
256.2,1325.408,263.52,122.43,-75.95,12.95
258.64,1295.64,246.928,121.03,-79.52,25.83
242.048,1264.896,228.384,118.72,-83.02,38.36
195.688,1263.92,223.504,115.64,-85.89,50.19
151.28,1237.08,235.704,112.0,-87.99,60.83
111.752,1196.088,237.168,107.94,-89.18,69.37
58.56,1159.976,237.656,103.46,-89.6,74.62
-7.808,1114.592,219.6,98.84,-88.9,76.93
-53.68,1062.376,199.592,93.8,-87.22,76.65
-71.736,980.392,164.944,88.41,-84.63,73.99
-93.696,898.896,109.312,82.25,-81.62,68.81
-101.992,838.384,62.464,75.74,-78.05,62.02
-98.088,785.68,35.136,69.37,-74.13,55.44
-85.4,739.32,25.376,63.49,-70.0,49.98
-59.048,714.92,34.648,58.38,-65.94,45.92
-50.264,653.92,40.992,53.69,-62.02,42.63
-40.016,603.168,-3.904,48.86,-58.24,39.13
-30.256,577.304,-43.92,43.89,-54.53,35.35
-17.08,554.368,-61.488,38.99,-50.96,31.85
2.928,551.44,-97.6,34.23,-47.53,29.12
24.4,545.096,-118.584,30.03,-44.31,27.3
42.456,554.368,-121.512,26.32,-41.37,26.81
67.344,570.472,-143.472,23.31,-38.78,27.72
81.008,569.008,-167.384,20.86,-36.4,29.54
106.384,574.864,-187.392,18.9,-34.44,31.08
139.08,596.824,-228.384,17.22,-32.97,31.43
179.584,631.472,-276.208,16.03,-32.06,30.8
211.792,666.608,-304.512,15.61,-31.64,29.75
227.408,699.792,-316.712,15.75,-31.64,28.63
232.776,742.736,-351.36,16.31,-31.85,27.93
239.12,796.904,-388.936,17.57,-32.06,27.3
253.76,838.872,-416.752,19.32,-32.41,25.97
291.824,890.6,-431.88,21.77,-33.18,23.1
314.76,938.424,-451.4,24.85,-34.51,19.25
323.056,988.688,-471.896,28.49,-35.98,15.54
345.992,1028.704,-500.2,32.76,-37.52,12.95
366.0,1048.712,-529.48,37.17,-39.34,12.11
369.416,1070.672,-542.656,41.72,-41.16,13.16
366.0,1089.216,-529.48,46.2,-42.98,15.75
347.456,1109.712,-521.672,50.47,-44.59,18.2
329.888,1145.336,-556.32,54.46,-45.92,20.23
306.464,1218.048,-636.84,58.38,-47.04,22.47
330.376,1288.32,-780.8,62.37,-48.02,25.13
361.12,1260.992,-869.128,66.29,-49.35,27.09
377.224,1247.816,-879.864,69.44,-51.24,28.07
388.936,1258.552,-881.328,72.1,-53.34,28.28
386.008,1269.776,-860.832,74.69,-55.72,28.35
353.8,1249.28,-804.224,77.21,-58.03,29.05
291.824,1212.68,-805.688,79.17,-59.85,30.66
252.296,1220.976,-879.864,80.78,-60.97,33.11
238.632,1253.184,-939.4,82.39,-61.6,35.56
241.56,1302.96,-970.632,84.42,-62.16,36.82
260.104,1307.352,-969.656,86.87,-62.86,36.12
293.776,1270.264,-944.28,89.39,-63.77,33.25
307.44,1149.728,-931.592,91.14,-65.03,28.7
272.792,990.64,-937.936,91.21,-66.08,23.94
225.456,864.736,-966.728,89.04,-66.43,20.37
185.928,767.136,-974.536,85.19,-65.94,18.69
163.968,688.08,-942.328,80.15,-64.82,18.62
151.28,625.128,-902.8,74.48,-63.35,19.32
139.08,567.056,-834.48,68.39,-61.81,20.72
127.856,516.792,-773.48,62.02,-60.13,22.12
110.776,482.632,-748.592,55.65,-58.45,22.82
74.176,456.28,-734.44,49.42,-56.56,23.17
24.4,438.224,-719.8,43.47,-54.25,24.08
-12.688,434.32,-701.256,38.01,-51.38,25.27
-39.528,449.936,-673.44,33.32,-48.37,25.9
-45.384,490.928,-645.624,29.54,-45.43,24.99
-35.136,515.328,-627.08,27.02,-42.77,21.56
-15.616,517.28,-612.928,25.48,-40.74,15.4
5.856,509.96,-613.904,24.57,-39.27,6.72
14.64,487.512,-628.544,24.15,-38.36,-3.36
44.408,495.32,-650.016,23.87,-37.8,-13.51
79.056,508.984,-672.952,24.15,-37.73,-22.96
125.416,522.16,-700.28,24.85,-38.15,-31.29
163.968,511.424,-716.384,25.97,-39.13,-37.94
202.032,489.952,-722.728,27.16,-40.46,-42.56
238.144,484.096,-737.368,28.28,-42.21,-44.59
266.936,488.976,-761.28,29.61,-44.38,-44.03
283.528,464.088,-774.456,31.01,-46.76,-41.16
312.808,442.128,-790.072,32.13,-49.42,-36.33
345.504,445.544,-802.76,33.11,-52.5,-30.59
368.44,441.152,-823.256,34.09,-56.0,-24.99
374.784,411.384,-839.36,35.0,-59.92,-19.46
373.32,387.472,-852.048,35.56,-63.91,-13.93
372.832,371.856,-876.448,35.77,-67.97,-8.54
374.296,363.072,-889.624,35.77,-72.24,-3.85
390.888,373.808,-900.848,35.84,-76.58,-0.49
391.864,387.472,-922.32,36.05,-81.2,1.68
389.912,419.192,-934.032,36.54,-85.89,3.64
374.296,435.784,-948.184,37.38,-90.44,5.67
373.32,454.816,-952.576,38.57,-94.85,8.19
382.592,493.856,-977.952,40.04,-99.26,11.34
401.136,529.48,-990.64,41.93,-103.95,14.42
424.56,561.2,-997.96,44.24,-108.99,16.66
424.56,575.84,-987.224,46.83,-114.45,17.43
422.12,577.304,-974.048,49.56,-120.12,16.87
424.072,606.096,-965.752,52.36,-125.86,15.33
390.888,623.176,-939.888,55.44,-131.6,14.21
326.472,628.056,-914.512,58.73,-136.78,14.49
253.76,651.968,-895.968,62.09,-141.26,16.45
168.36,613.904,-861.808,65.24,-144.83,18.62
98.576,649.04,-879.864,67.83,-147.63,18.83
21.96,680.272,-953.552,70.42,-149.87,16.66
-88.328,657.336,-958.432,73.15,-151.2,13.23
-181.048,633.424,-908.168,75.6,-151.55,9.66
-230.824,593.408,-839.848,77.84,-151.13,5.39
-253.76,543.632,-761.28,79.94,-150.5,-0.35
-296.216,496.296,-683.688,81.69,-149.8,-7.35
-333.304,522.16,-656.36,83.37,-148.75,-14.0
-365.024,600.728,-673.928,85.89,-147.49,-19.32
-437.248,687.592,-660.264,89.53,-145.6,-21.7
-534.36,793.488,-625.128,94.57,-142.73,-19.95
-672.952,842.288,-568.032,100.94,-138.6,-14.28
-858.88,808.128,-504.104,107.8,-132.86,-6.44
-1018.456,776.896,-464.088,114.24,-125.16,1.12
-1142.408,820.816,-467.016,120.4,-116.06,6.37
-1248.792,880.352,-453.84,126.91,-105.98,8.19
-1299.544,964.288,-446.032,134.05,-95.41,5.88
-1347.368,927.2,-456.768,141.68,-84.7,-1.68
-1343.952,776.408,-488.976,148.19,-74.27,-15.4
-1327.36,535.336,-499.224,152.11,-64.26,-34.3
-1267.824,341.112,-509.96,152.74,-54.67,-54.88
-1189.744,213.744,-534.36,150.85,-45.71,-73.08
-1097.512,145.424,-532.408,147.49,-37.45,-86.1
-1032.12,126.392,-522.16,143.5,-30.03,-92.4
-1042.856,51.728,-505.568,139.58,-23.17,-91.7
-1060.424,-68.32,-466.528,135.17,-16.45,-84.35
-1053.104,-172.264,-433.344,129.71,-10.08,-73.29
-1057.984,-224.48,-407.48,123.62,-4.34,-60.97
-1022.848,-168.36,-392.352,117.67,0.63,-48.93
-977.952,-100.04,-374.784,112.91,4.55,-38.29
-946.72,-55.144,-320.616,109.62,7.35,-29.68
-913.048,-64.904,-262.056,107.38,9.1,-24.01
-902.312,-130.296,-210.328,105.21,9.94,-21.63
-857.904,-154.696,-192.272,102.83,10.15,-22.05
-774.456,-159.576,-213.744,100.45,9.45,-24.85
-700.28,-196.176,-238.144,98.0,7.77,-28.77
-621.224,-255.712,-257.176,95.2,5.39,-32.27
-531.432,-332.328,-278.16,91.77,2.38,-33.74
-459.208,-415.776,-269.376,87.5,-1.33,-32.06
-425.048,-468.968,-249.856,82.46,-5.39,-26.25
-403.088,-490.44,-257.664,76.93,-9.38,-16.45
-401.624,-533.872,-267.912,71.26,-13.3,-4.2
-421.632,-575.84,-273.28,65.1,-16.94,8.89
-468.968,-589.016,-267.912,58.45,-20.02,22.61
-523.136,-564.128,-273.28,51.87,-22.26,36.26
-581.208,-505.08,-260.104,45.78,-23.73,49.07
-643.672,-469.456,-240.584,40.46,-24.36,59.92
-711.016,-488.976,-198.128,35.56,-24.22,67.62
-768.112,-475.8,-167.384,30.73,-23.38,72.03
-831.552,-481.656,-157.624,26.18,-21.84,72.8
-865.224,-438.224,-170.312,21.7,-19.6,70.21
-879.864,-368.44,-183.0,17.99,-17.08,64.75
-905.728,-357.704,-160.552,15.05,-14.21,57.68
-895.48,-345.504,-149.816,12.53,-10.99,50.68
-877.424,-369.904,-139.568,10.15,-7.7,44.38
-868.152,-386.008,-150.304,7.56,-4.41,38.78
-852.048,-408.456,-192.76,4.62,-0.98,34.02
-842.288,-454.328,-241.072,1.12,2.59,30.38
-813.496,-485.56,-301.584,-2.94,6.44,28.91
-801.296,-518.744,-326.96,-7.56,10.43,30.38
-787.144,-569.984,-360.144,-12.74,14.7,34.93
-784.704,-602.68,-377.224,-18.2,19.11,41.72
-782.264,-624.64,-392.84,-23.94,23.73,49.63
-765.672,-620.736,-403.576,-29.75,28.35,57.26
-764.208,-615.856,-408.456,-35.28,33.04,64.19
-797.88,-602.192,-443.592,-40.32,37.87,71.54
-821.792,-521.184,-523.136,-44.52,43.4,81.2
-889.136,-461.16,-566.568,-47.32,49.42,93.59
-930.128,-412.36,-578.28,-48.79,56.14,106.89
-921.832,-369.416,-586.576,-49.0,62.86,118.02
-914.512,-339.648,-603.656,-48.09,68.88,124.11
-877.424,-277.184,-652.456,-46.48,73.99,124.74
-830.088,-241.56,-677.832,-44.03,77.77,120.75
-796.416,-237.168,-691.984,-41.02,80.36,113.54
-780.8,-266.448,-731.024,-38.08,82.18,105.84
-744.688,-269.864,-804.224,-35.49,83.58,100.8
-689.056,-286.456,-872.544,-33.18,84.63,99.96
-624.64,-299.632,-927.2,-31.22,85.26,103.6
-552.904,-295.728,-978.928,-29.75,85.26,110.67
-505.08,-300.608,-1016.992,-28.42,84.49,119.98
-477.264,-293.776,-1039.928,-27.51,83.16,130.55
-456.768,-282.552,-1043.344,-26.74,81.48,141.19
-446.032,-260.592,-1044.808,-26.11,79.38,149.87
-429.928,-206.912,-1073.112,-25.55,77.0,155.19
-435.784,-163.48,-1090.192,-24.85,74.2,157.71
-433.832,-97.112,-1074.088,-23.8,71.26,158.62
-410.896,-48.312,-1036.512,-22.4,68.04,157.71
-361.608,-13.176,-1006.256,-20.65,64.26,154.21
-306.464,47.336,-968.68,-18.62,59.78,148.75
-280.6,87.352,-926.712,-16.24,54.74,142.94
-250.344,158.112,-897.92,-13.51,49.63,138.32
-206.424,255.712,-861.32,-10.08,44.45,134.89
-177.632,319.152,-807.64,-5.88,39.2,132.93
-141.52,382.592,-749.568,-1.05,34.02,132.58
-111.264,432.368,-719.8,3.99,28.91,134.61
-87.352,469.456,-692.96,9.17,24.01,139.65
-65.392,500.2,-650.504,14.21,19.39,147.07
-49.776,502.64,-623.176,18.9,14.98,155.19
-61.488,495.32,-628.056,22.75,10.85,162.26
-78.568,498.248,-651.968,25.62,7.28,168.07
-76.128,490.928,-647.576,27.58,4.27,172.76
-47.336,480.68,-651.968,28.56,1.54,175.98
-21.472,478.728,-661.24,28.63,-0.98,177.45
-26.352,469.944,-651.48,27.79,-3.29,177.66
-56.608,467.992,-652.456,26.18,-4.97,177.52
-67.832,476.288,-687.104,23.87,-5.74,177.24
-52.704,468.968,-757.864,20.79,-5.81,176.33
-32.696,444.08,-799.832,16.94,-5.67,174.72
1.464,439.2,-840.336,12.39,-5.18,173.04
36.112,444.568,-858.88,7.21,-4.62,171.22
78.08,464.576,-873.52,1.75,-4.2,169.19
127.368,481.656,-894.504,-3.78,-3.99,166.46
187.392,516.304,-931.592,-9.31,-4.13,162.4
243.512,551.44,-936.96,-14.63,-4.9,157.36
303.536,593.408,-944.768,-19.6,-6.16,151.27
355.752,618.296,-952.088,-24.08,-8.05,144.48
396.744,626.592,-956.968,-28.21,-10.5,137.76
419.68,620.248,-956.48,-32.27,-13.23,132.51
444.08,625.616,-965.264,-36.19,-15.96,129.92
467.016,643.672,-976.0,-39.69,-18.76,129.92
477.264,682.712,-956.968,-42.7,-21.49,132.09
492.392,756.4,-944.768,-44.8,-24.22,135.73
499.712,835.944,-939.4,-45.71,-26.88,140.07
490.928,902.312,-932.08,-45.29,-29.61,143.85
474.824,947.208,-937.936,-43.82,-32.13,146.23
434.32,955.504,-937.936,-41.79,-34.37,147.49
391.864,957.944,-919.88,-39.34,-36.19,147.98
362.584,952.088,-897.92,-36.75,-37.52,147.49
333.304,928.664,-878.888,-34.09,-38.43,145.67
306.952,882.304,-850.584,-31.57,-39.2,141.96
277.672,828.624,-816.912,-29.54,-39.55,136.92
229.36,778.36,-781.776,-27.93,-39.62,132.09
184.464,742.736,-751.52,-26.53,-38.99,128.66
156.648,745.664,-728.584,-25.27,-37.8,126.84
138.592,756.4,-707.112,-23.66,-36.26,125.79
140.056,778.36,-693.936,-21.56,-34.72,124.11
137.616,779.336,-664.656,-19.04,-33.32,120.82
147.864,773.48,-646.112,-16.31,-32.06,115.43
156.648,743.224,-635.864,-13.72,-31.22,108.57
144.936,713.944,-627.568,-11.41,-30.52,101.01
130.784,685.64,-637.816,-9.45,-29.75,94.15
123.464,656.848,-637.816,-8.12,-28.7,88.13
128.832,623.176,-637.816,-7.28,-27.58,82.53
125.904,589.992,-632.936,-7.07,-26.39,77.21
135.176,552.904,-636.352,-7.56,-25.06,72.52
163.48,535.336,-663.68,-8.75,-23.8,68.53
180.56,520.696,-681.248,-10.5,-22.75,65.59
187.88,511.424,-683.2,-12.6,-21.7,64.47
195.2,512.4,-713.944,-14.98,-20.58,65.1
212.28,550.952,-757.376,-17.64,-19.46,66.92
221.064,566.08,-782.264,-20.02,-18.48,68.81
231.8,592.432,-785.68,-22.33,-17.64,69.93
232.288,597.8,-809.104,-24.57,-16.94,70.0
230.824,619.76,-809.592,-26.81,-16.38,69.51
224.48,626.592,-811.056,-29.12,-15.75,68.32
216.184,629.032,-812.032,-31.43,-15.05,66.5
207.888,621.712,-797.392,-33.81,-14.28,64.33
193.248,606.096,-784.704,-36.4,-13.44,62.44
167.872,592.432,-769.576,-39.34,-12.39,61.6
168.848,636.84,-790.072,-42.28,-11.2,61.46
178.12,720.776,-880.352,-44.87,-10.22,60.83
223.016,818.376,-1005.28,-46.69,-9.66,58.45
295.728,907.192,-1152.656,-47.67,-10.01,52.92
373.32,941.84,-1259.04,-47.88,-11.76,43.96
426.024,910.608,-1249.768,-47.88,-14.91,32.27
474.824,869.616,-1136.064,-48.16,-19.18,19.81
525.088,844.24,-992.592,-48.58,-24.36,8.61
547.048,831.552,-830.576,-48.72,-30.17,0.7
496.784,790.56,-680.76,-48.72,-35.7,-1.4
422.12,759.816,-618.296,-49.07,-39.97,4.13
323.056,745.664,-627.08,-49.77,-42.35,17.43
211.304,742.736,-649.04,-50.96,-42.63,36.68
123.464,770.064,-705.648,-52.57,-40.74,58.31
83.936,795.44,-747.128,-54.32,-37.38,77.84
56.12,813.008,-715.896,-56.14,-33.32,91.84
37.088,831.552,-690.032,-57.75,-28.84,98.77
25.376,842.288,-688.568,-59.15,-24.22,98.77
28.792,833.504,-667.584,-60.27,-19.74,92.4
47.824,813.984,-640.744,-61.46,-15.61,80.43
81.496,782.264,-632.936,-62.72,-11.83,64.05
105.896,752.496,-593.896,-64.26,-8.54,45.85
105.896,724.68,-539.728,-65.87,-5.32,28.84
106.384,709.064,-490.928,-67.34,-1.89,14.91
109.312,684.176,-459.208,-68.6,1.89,4.34
129.32,669.536,-404.064,-69.72,5.81,-3.36
141.52,653.432,-467.016,-70.56,9.73,-7.98
148.352,665.144,-444.568,-71.05,13.72,-9.17
156.16,677.344,-393.816,-71.05,17.78,-6.72
182.512,681.736,-384.056,-70.28,21.84,-1.33
191.296,690.032,-365.512,-69.02,25.76,6.44
197.152,698.328,-351.848,-67.27,29.47,15.75
207.4,690.52,-337.696,-65.03,33.04,25.2
240.584,688.568,-329.888,-62.65,36.19,32.2
264.008,687.104,-330.376,-60.13,38.64,35.21
263.032,698.816,-324.032,-57.47,40.32,34.65
277.184,706.624,-303.048,-54.67,41.51,31.08
296.704,721.752,-289.872,-51.73,42.21,24.78
322.568,740.784,-291.336,-48.44,42.35,15.89
339.16,750.544,-299.632,-45.15,42.0,5.81
352.824,760.304,-270.84,-41.72,41.44,-3.01
376.736,782.264,-267.912,-38.15,40.88,-9.24
393.328,797.88,-263.032,-34.3,40.39,-12.32
406.992,799.344,-250.344,-30.45,40.18,-11.97
423.096,801.784,-249.856,-26.81,40.39,-8.4
444.08,807.152,-246.928,-23.24,40.95,-2.17
463.6,803.736,-242.536,-20.02,41.79,5.53
473.848,795.44,-245.464,-17.08,42.91,13.86
479.704,805.688,-276.208,-14.7,44.45,23.03
464.576,819.352,-295.24,-12.53,46.48,33.25
461.16,847.656,-319.152,-10.57,49.14,43.89
458.72,887.184,-345.016,-8.54,52.22,53.76
449.936,921.344,-363.072,-6.23,55.65,61.88
451.888,948.672,-372.344,-3.64,59.36,67.9
459.696,967.216,-412.36,-0.98,63.14,70.91
461.648,976.488,-459.208,1.82,67.06,70.98
457.744,981.856,-481.168,4.41,70.91,69.02
444.568,977.464,-479.704,6.86,75.04,65.38
466.528,991.616,-486.536,9.1,79.31,59.5
507.032,998.448,-490.44,11.27,83.09,50.89
554.368,994.056,-486.048,13.16,86.38,39.9
605.608,1002.84,-476.776,14.84,89.04,27.72
630.496,998.936,-469.456,16.1,91.14,15.4
658.8,1002.84,-470.432,17.15,92.96,3.78
671.488,982.832,-444.568,17.99,94.57,-6.23
677.832,963.8,-405.04,18.48,96.11,-13.37
668.072,952.088,-377.712,18.76,97.72,-17.15
638.304,919.88,-366.488,18.69,99.54,-17.78
598.288,876.448,-358.68,18.27,101.78,-16.38
568.032,829.112,-353.8,17.29,104.37,-14.21
548.024,797.392,-351.848,15.68,107.17,-12.25
525.088,779.824,-359.656,13.58,109.9,-11.06
505.568,760.792,-355.752,11.27,112.63,-10.85
499.712,761.768,-371.368,8.68,115.29,-11.97
492.88,754.936,-378.688,5.74,117.6,-15.26
519.72,752.984,-362.584,2.52,119.56,-21.28
554.856,755.424,-353.8,-0.84,120.89,-29.75
583.16,752.496,-342.576,-4.41,121.45,-38.85
599.752,745.664,-325.984,-7.98,121.52,-46.9
602.192,738.344,-304.024,-11.76,121.24,-52.92
572.424,736.88,-276.696,-15.33,120.75,-56.28
559.736,746.152,-244.488,-18.62,120.33,-57.82
565.592,743.712,-221.552,-21.56,119.63,-59.08
578.28,745.664,-193.736,-24.22,118.23,-61.04
586.576,731.024,-168.36,-26.6,116.2,-64.12
577.792,731.024,-150.792,-28.91,113.54,-67.83
567.544,718.336,-98.088,-31.08,110.53,-71.75
557.784,690.032,-101.016,-33.39,107.17,-75.53
515.816,678.808,-94.184,-35.7,103.67,-77.98
458.232,658.8,-70.272,-37.94,100.31,-79.52
496.296,667.584,-49.288,-40.25,96.95,-81.41
531.432,662.216,-105.408,-42.21,92.82,-83.3
519.232,698.816,-115.656,-43.89,88.2,-83.3
583.16,667.584,-3.416,-44.66,83.37,-80.15
440.664,628.544,74.664,-45.57,78.47,-73.15
472.384,845.704,-12.688,-45.71,74.76,-63.07
492.392,675.392,42.456,-44.24,70.84,-52.5
446.032,671.976,12.2,-43.89,66.64,-43.05
450.424,766.648,9.272,-43.4,62.37,-36.33
474.824,818.376,12.688,-41.86,57.47,-34.37
435.784,843.752,3.416,-39.62,51.94,-37.94
355.752,796.416,34.648,-37.1,46.48,-45.64
467.016,933.056,69.784,-34.58,41.37,-53.9
499.712,985.272,74.664,-30.73,35.42,-59.85
488.488,985.76,59.536,-26.46,29.4,-62.09
500.688,982.832,47.336,-22.26,23.8,-61.04
527.528,972.584,40.992,-18.48,18.34,-57.82
542.656,1058.472,44.896,-14.84,12.74,-51.8
504.104,1029.68,52.704,-10.71,7.49,-42.7
450.912,986.248,41.48,-7.21,2.94,-31.78
453.84,1011.136,53.192,-4.41,-1.12,-22.19
424.072,1016.504,21.96,-1.82,-5.46,-17.5
423.096,1027.728,23.912,0.7,-9.8,-18.55
426.512,1017.968,13.664,3.22,-14.07,-22.54
435.784,1039.44,-7.808,5.81,-18.13,-25.9
407.968,1024.312,-13.176,9.17,-21.63,-26.11
311.344,987.224,-1.952,13.09,-24.08,-21.0
328.424,1028.704,7.32,17.36,-25.2,-11.69
358.192,1136.064,-25.376,22.89,-26.11,-0.56
324.032,1118.008,-19.52,29.4,-26.95,11.2
288.896,1098.976,-27.328,35.49,-26.95,23.59
260.104,1051.64,-42.944,40.67,-26.18,35.0
292.8,1051.152,-72.712,44.38,-25.27,42.7
287.432,1037.488,-92.232,47.25,-24.78,45.29
264.496,1027.24,-93.208,49.28,-24.5,44.1
259.128,1018.456,-102.48,50.75,-23.94,40.32
276.696,973.56,-110.288,51.66,-23.31,34.93
269.376,930.616,-140.056,51.73,-22.47,31.08
256.688,929.64,-155.184,50.96,-21.0,31.64
265.96,958.432,-170.8,50.19,-19.11,35.98
265.96,963.8,-169.824,49.91,-17.15,41.65
263.032,971.12,-146.888,49.98,-15.19,47.04
259.616,980.88,-137.616,50.54,-13.23,50.89
240.096,991.128,-139.08,51.38,-11.34,52.43
243.512,992.104,-127.368,52.5,-9.45,50.61
261.08,1004.792,-147.864,53.55,-7.84,44.8
259.616,991.128,-140.056,54.95,-6.51,36.68
289.384,986.248,-118.096,56.49,-5.32,28.28
332.328,996.496,-113.704,58.1,-4.62,20.3
355.264,991.616,-118.096,60.06,-4.34,13.93
355.752,973.072,-135.664,62.02,-4.2,10.78
377.712,967.216,-130.784,63.77,-3.99,10.99
387.96,958.92,-155.184,65.45,-3.92,12.88
380.152,942.816,-165.432,66.99,-3.85,15.47
370.88,937.448,-192.272,68.32,-3.64,17.92
364.048,922.808,-203.984,69.58,-3.36,19.39
361.608,913.048,-202.032,70.84,-3.15,19.67
365.024,904.264,-201.544,72.03,-3.15,19.11
365.512,908.656,-237.168,73.43,-3.22,17.29
361.12,908.168,-256.2,74.76,-3.36,14.49
360.632,911.096,-255.712,76.23,-3.29,11.76
376.736,924.76,-262.544,77.98,-3.08,9.94
379.176,916.952,-262.056,80.08,-2.87,9.87
411.384,894.992,-254.248,82.39,-2.52,12.32
565.104,654.896,-208.864,74.62,-0.77,33.39
493.856,789.584,-165.92,57.4,0.49,59.08
422.608,937.448,-255.712,56.84,-2.31,47.81
436.272,973.56,-270.84,58.59,-5.04,31.85
408.456,912.56,-271.328,58.8,-6.09,22.47
401.624,904.264,-266.936,58.03,-5.6,20.02
406.016,933.056,-283.528,58.59,-4.69,19.74
423.584,949.16,-296.704,60.06,-3.57,20.09
449.448,941.352,-296.704,61.46,-2.24,22.4
478.728,947.208,-312.808,62.65,-0.77,26.67
504.104,955.992,-345.992,64.12,0.42,31.85
508.984,964.288,-363.072,65.8,1.68,37.45
513.376,969.168,-369.416,67.55,2.87,42.91
516.792,990.152,-399.184,69.44,3.92,46.06
528.992,1025.288,-397.72,71.89,4.48,44.73
544.12,1066.768,-444.08,74.97,4.34,38.92
544.608,1094.096,-436.272,78.61,3.85,31.71
555.832,1128.256,-466.04,82.39,3.36,25.2
543.144,1155.584,-519.72,86.03,2.94,19.53
514.352,1179.984,-552.416,88.9,3.15,15.05
483.608,1212.68,-605.12,91.14,3.99,11.06
475.8,1251.232,-639.28,92.61,5.46,5.74
466.528,1276.12,-697.352,93.38,7.28,-2.31
471.896,1315.648,-788.608,93.52,9.38,-13.16
462.136,1339.072,-821.304,92.96,11.83,-25.62
479.216,1354.2,-870.104,91.77,14.63,-38.71
487.024,1358.104,-918.416,90.09,17.29,-53.34
512.888,1340.536,-960.384,87.57,19.88,-70.14
581.208,1353.712,-1022.848,84.49,21.98,-89.6
650.504,1379.576,-1072.624,81.06,23.03,-110.18
728.584,1428.864,-1127.768,78.05,23.1,-128.66
808.616,1448.872,-1157.536,75.6,22.12,-142.38
879.864,1453.752,-1175.104,73.71,20.16,-149.52
941.84,1446.92,-1266.36,72.31,17.22,-150.57
1025.776,1434.72,-1308.816,71.19,12.95,-148.75
1071.648,1387.872,-1317.6,70.14,7.28,-146.86
1103.856,1322.968,-1340.536,69.02,0.56,-146.09
1163.88,1229.272,-1398.12,67.06,-6.79,-147.42
1217.56,1147.776,-1421.544,64.12,-14.77,-149.73
1300.032,1115.568,-1482.056,60.55,-22.96,-150.92
1354.2,1105.32,-1515.24,57.05,-31.43,-149.87
1380.552,1055.544,-1512.8,53.69,-40.04,-147.49
1463.024,971.12,-1565.016,50.33,-48.72,-146.93
1507.92,908.168,-1533.784,46.9,-57.96,-149.87
1524.512,812.52,-1500.6,43.61,-67.34,-155.33
1571.36,696.864,-1445.944,40.25,-76.65,-162.33
1670.424,573.4,-1368.352,36.26,-86.45,-170.38
1748.992,488.0,-1273.192,31.99,-97.23,-175.98
1803.16,398.208,-1179.496,27.79,-108.99,-174.86
1804.136,298.168,-1069.208,23.52,-121.59,-166.46
1789.008,176.168,-959.408,18.9,-134.89,-154.21
1850.008,81.984,-889.624,13.79,-149.38,-143.43
1840.736,-27.328,-736.88,8.61,-165.62,-135.17
1670.912,-116.144,-578.768,3.01,-182.0,-124.95
1522.072,-223.992,-562.664,-3.08,-196.77,-112.14
1314.184,-285.48,-448.96,-9.73,-209.79,-100.87
1135.088,-335.744,-396.744,-16.8,-221.06,-95.55
911.096,-382.592,-312.32,-23.94,-230.44,-96.6
641.232,-435.296,-254.736,-31.29,-237.44,-102.06
393.328,-461.648,-178.12,-38.57,-241.71,-112.84
256.688,-497.272,-133.712,-45.71,-243.95,-132.23
203.984,-524.112,-120.048,-52.43,-245.77,-159.04
125.904,-494.832,-62.464,-58.1,-247.66,-183.75
160.064,-506.056,-28.304,-62.37,-249.41,-199.01
229.36,-526.064,47.336,-65.8,-252.07,-203.84
298.168,-583.16,96.136,-69.09,-255.99,-198.31
326.96,-593.408,217.16,-72.8,-260.82,-182.0
371.368,-628.056,302.56,-77.35,-266.14,-157.64
337.208,-602.192,405.04,-82.95,-272.09,-130.69
257.664,-527.04,533.872,-89.18,-277.97,-108.01
133.712,-493.368,655.872,-95.55,-283.36,-96.67
25.376,-509.96,735.904,-101.99,-288.05,-99.68
-65.88,-552.416,811.544,-108.71,-291.97,-113.96
-90.28,-623.664,883.768,-115.29,-295.26,-132.09
-174.704,-641.72,1042.856,-121.73,-297.78,-147.7
-111.752,-700.768,1064.328,-127.96,-299.46,-161.91
-130.784,-724.192,1140.456,-133.98,-301.56,-178.36
-167.384,-724.192,1184.864,-139.58,-303.31,-194.88
-176.656,-699.304,1212.68,-144.69,-304.43,-209.09
-87.84,-708.576,1126.304,-149.17,-305.34,-218.75
-168.36,-621.712,1165.832,-153.16,-305.97,-219.52
-302.56,-542.656,1146.8,-156.52,-304.08,-210.35
-238.632,-557.296,994.056,-159.74,-300.3,-200.76
-418.704,-527.04,1060.424,-163.66,-295.82,-194.04
-523.136,-525.576,1023.336,-168.14,-288.47,-181.02
-711.992,-568.52,1133.624,-173.88,-278.18,-159.46
-802.272,-678.808,1126.304,-182.56,-265.72,-138.53
-778.848,-729.072,1151.192,-194.25,-253.47,-129.92
-606.584,-742.248,1181.936,-207.76,-243.74,-132.58
-558.272,-673.928,1425.936,-220.99,-237.09,-133.56
-393.816,-650.992,1421.544,-233.52,-232.12,-126.56
-303.536,-647.576,1556.72,-245.7,-229.81,-119.28
-235.704,-606.584,1573.312,-257.95,-229.53,-113.4
-302.56,-587.552,1780.712,-269.57,-230.37,-106.4
-255.224,-583.16,1825.12,-281.12,-231.7,-102.13
-228.872,-578.28,1843.664,-292.32,-234.85,-108.08
-147.864,-610.488,1805.6,-303.03,-240.45,-124.74
-176.168,-659.776,1907.592,-313.04,-247.87,-141.75
-164.944,-721.752,1956.392,-322.7,-255.36,-151.62
-192.76,-745.664,1979.328,-332.08,-263.13,-159.88
-134.688,-824.232,1987.136,-341.04,-271.53,-172.2
-81.008,-894.992,2086.688,-349.93,-281.33,-189.07
25.864,-981.368,2051.064,-358.75,-292.04,-202.72
105.896,-1033.584,2042.768,-367.85,-302.89,-206.78
37.088,-1066.28,2022.76,-377.37,-312.9,-201.53
210.328,-1287.832,2011.536,-388.15,-322.14,-201.11
238.144,-1447.896,1936.872,-401.1,-333.69,-213.99
324.032,-1668.96,1699.216,-415.45,-345.87,-226.31
522.16,-1858.304,1669.936,-431.06,-359.03,-231.91
704.672,-1825.12,1382.504,-446.25,-373.52,-230.86
1064.328,-1852.448,1209.752,-457.59,-389.76,-229.04
1294.664,-1624.064,922.808,-462.7,-409.36,-230.23
1656.76,-1419.592,554.368,-457.52,-430.64,-231.91
1944.68,-1301.008,47.824,-441.49,-453.32,-231.7
2114.992,-1109.224,-560.224,-416.01,-474.11,-216.51
2295.064,-756.888,-1266.848,-382.06,-490.56,-186.76
2606.896,-398.208,-1975.912,-339.5,-503.65,-159.67
2857.728,55.144,-2700.104,-287.63,-516.11,-148.96
3101.728,387.472,-3244.712,-224.49,-527.8,-148.82
3348.656,947.696,-3618.52,-150.5,-537.67,-146.02
3654.632,1484.984,-3913.76,-65.24,-545.09,-128.94
3792.736,2093.52,-4118.72,29.82,-549.85,-92.75
3549.224,2378.024,-4542.304,131.39,-551.39,-46.34
2759.64,2458.056,-5212.328,234.22,-547.05,-3.43
1838.296,2625.928,-5825.744,336.28,-533.54,20.02
1033.584,3654.144,-5901.872,443.03,-510.93,12.74
837.408,5390.448,-5245.024,567.14,-481.18,-22.68
1768.024,7478.6,-4209.488,717.01,-450.45,-82.39
2899.696,9631.168,-3004.128,893.06,-422.52,-155.33
4946.368,12454.736,-1040.904,1090.74,-394.52,-209.79
7191.168,14479.937,935.496,1303.26,-376.04,-216.09
7418.576,14374.04,1700.68,1498.84,-374.22,-124.6
5949.208,13488.809,813.984,1639.54,-394.87,53.9
3523.36,11807.16,-269.376,1709.12,-448.77,268.24
3652.192,1164.856,-1259.04,1382.08,-468.44,683.62
2063.264,9524.784,-3126.128,305.55,-509.04,1074.85
-120.048,9523.32,-3003.152,289.73,-420.63,237.23
1129.72,6896.416,-2601.528,532.84,-625.38,-477.19
2625.44,4688.704,-3490.664,775.18,-580.3,-511.28
4258.776,3991.352,-3865.448,845.39,-495.95,-70.63
5185.488,4811.192,-3700.992,813.33,-497.98,354.9
4980.528,4958.08,-3176.88,747.46,-562.38,491.82
3852.76,4313.92,-2420.968,674.31,-628.11,397.04
2651.792,3497.496,-2230.16,605.36,-655.48,268.38
1914.912,2954.352,-2486.848,541.45,-644.21,217.21
1499.136,2653.744,-2866.024,478.8,-612.64,203.91
1124.84,2849.432,-3510.672,422.87,-572.53,153.65
1085.8,3095.872,-3792.736,384.44,-526.4,58.66
1475.224,3420.392,-3959.144,367.78,-476.91,-54.04
1695.8,3288.632,-3925.472,369.39,-427.21,-155.68
1722.64,3235.44,-3777.12,379.96,-375.13,-223.93
1701.656,3164.68,-3575.576,393.26,-321.3,-263.06
1860.256,3181.272,-3520.92,405.65,-268.17,-295.47
2069.12,3217.384,-3346.216,416.57,-218.54,-333.97
2187.216,3029.016,-3243.248,425.39,-172.06,-372.33
2161.352,2856.264,-3169.072,429.66,-126.7,-399.28
2180.384,2684.976,-3098.8,428.75,-81.69,-411.32
2343.864,2755.736,-2978.264,423.71,-39.13,-413.49
2572.248,2806.488,-2719.136,417.41,-1.75,-406.14
2563.952,2709.864,-2452.2,411.11,30.17,-381.71
2333.616,2445.856,-2233.088,404.11,57.82,-332.85
2033.984,2262.368,-2067.656,396.34,82.18,-266.42
1733.376,2151.104,-1913.448,388.64,102.55,-201.53
1628.944,2174.528,-1776.32,382.27,118.72,-154.84
1565.504,2125.728,-1587.464,377.93,130.55,-130.27
1495.232,1933.944,-1458.632,373.73,139.44,-118.86
1426.424,1730.936,-1316.624,368.13,147.0,-110.95
1353.712,1457.656,-1177.056,360.15,153.72,-101.36
1244.888,1169.248,-1122.888,349.02,160.02,-89.04
1149.24,888.648,-1106.296,334.53,165.9,-76.23
1071.16,699.304,-1077.504,317.38,171.5,-64.54
986.248,528.016,-1010.16,298.69,176.54,-54.39
949.16,446.032,-982.344,279.44,181.23,-47.46
946.72,403.576,-874.496,260.33,184.94,-47.6
931.592,335.256,-797.392,241.57,187.67,-54.39
889.136,259.128,-704.184,222.95,189.98,-62.3
837.896,195.688,-608.536,204.4,192.36,-67.48
756.4,175.68,-516.792,186.13,194.6,-71.75
670.512,170.8,-432.856,168.49,196.98,-78.4
576.328,211.792,-359.656,151.83,199.43,-89.88
498.736,244.488,-265.96,136.29,202.09,-108.22
459.208,275.232,-182.024,121.52,204.96,-132.51
434.32,296.216,-110.776,107.24,207.69,-158.62
423.584,302.072,-59.048,93.17,210.28,-184.1
406.504,315.736,-6.344,78.82,212.59,-207.76
411.872,327.936,21.96,64.47,214.41,-228.48
406.992,350.384,82.96,50.47,215.67,-245.0
398.208,361.608,154.208,37.1,216.3,-256.76
395.768,378.688,195.688,24.29,216.3,-265.3
418.704,361.12,218.624,11.97,215.39,-274.05
454.816,339.16,229.36,-0.35,213.15,-285.18
486.536,319.64,244.488,-12.88,209.51,-298.48
488.976,295.728,310.368,-25.41,204.75,-311.22
462.624,262.544,410.408,-37.8,199.29,-319.62
462.136,255.224,484.096,-49.7,193.48,-322.14
496.784,279.624,518.744,-60.83,187.04,-319.83
572.912,344.528,528.016,-70.42,179.62,-314.51
707.112,421.144,545.096,-78.26,170.66,-308.91
863.76,470.92,521.184,-84.35,159.53,-306.32
982.832,474.336,491.904,-89.25,146.16,-307.93
1049.688,480.68,476.288,-93.31,131.18,-312.13
1077.992,509.96,483.12,-96.46,115.36,-315.0
1112.64,513.376,551.44,-98.14,99.47,-312.41
1121.912,516.304,597.312,-98.7,83.86,-305.2
1276.12,684.176,543.144,-97.79,68.11,-298.55
1492.304,883.28,472.384,-94.01,50.82,-295.12
1657.736,1026.752,453.352,-87.15,31.57,-294.63
1697.264,1056.52,491.416,-77.91,11.2,-294.91
1687.016,1019.92,569.984,-67.62,-8.68,-292.95
1630.896,981.856,587.552,-56.7,-27.44,-286.37
1531.344,977.464,557.296,-45.36,-44.45,-274.19
1443.992,963.312,505.568,-33.74,-59.43,-257.32
1319.064,950.136,453.84,-22.33,-72.38,-238.98
1235.616,914.512,391.376,-11.34,-83.3,-222.18
1197.552,903.776,359.168,-1.33,-92.75,-207.76
1159.0,884.256,402.112,8.12,-101.29,-196.0
1084.336,810.568,402.112,16.73,-108.99,-186.69
1012.6,768.6,396.744,24.15,-115.43,-179.13
935.984,716.872,392.352,30.45,-120.61,-172.9
885.72,703.208,360.144,35.7,-124.46,-168.14
840.336,690.032,337.208,40.18,-127.19,-164.08
820.328,657.336,348.432,43.82,-129.08,-160.23
823.744,659.776,375.272,46.55,-130.34,-155.75
774.456,592.92,380.152,48.51,-131.18,-149.66
718.336,516.792,349.896,48.86,-131.25,-142.1
661.24,437.736,311.832,47.39,-130.62,-134.05
605.608,341.6,251.808,44.1,-129.43,-126.63
571.448,288.408,197.64,38.99,-127.82,-120.26
559.248,270.352,179.584,32.55,-126.14,-114.45
588.04,271.328,175.192,25.55,-124.74,-108.57
586.088,255.224,194.712,18.2,-123.83,-102.48
567.544,239.12,201.056,10.43,-123.27,-95.76
560.224,256.2,172.264,2.38,-122.78,-88.06
556.32,281.576,152.744,-5.53,-122.43,-79.87
562.664,333.304,158.112,-12.95,-122.5,-72.31
569.496,407.48,172.752,-19.67,-122.99,-66.36
621.712,506.056,207.888,-25.06,-124.18,-63.63
679.784,593.408,234.728,-29.05,-126.56,-65.31
732.976,691.984,283.528,-31.43,-130.06,-70.28
788.12,798.368,341.112,-32.13,-134.54,-76.79
870.592,917.928,384.056,-30.87,-140.07,-83.72
917.44,1010.648,413.336,-27.65,-146.51,-89.88
925.248,1060.424,439.688,-23.03,-153.44,-93.52
922.32,1080.432,443.104,-17.5,-160.09,-93.1
905.24,1058.472,407.968,-11.97,-166.32,-88.69
868.152,1033.096,371.856,-7.07,-171.85,-80.43
825.208,1025.776,341.6,-3.08,-176.68,-68.88
797.88,1036.512,315.248,0.14,-180.67,-55.09
764.208,1024.312,312.808,2.66,-184.24,-41.86
706.624,1009.184,313.784,4.34,-187.32,-31.5
642.696,984.296,284.504,5.32,-189.63,-24.5
574.864,961.848,279.136,5.53,-190.96,-19.32
528.504,955.504,269.864,5.39,-191.38,-14.98
492.88,961.36,273.28,5.18,-191.24,-10.99
448.96,963.8,284.016,5.04,-190.47,-6.79
420.656,957.456,268.4,4.9,-189.0,-2.52
396.744,939.888,253.76,4.55,-187.18,1.61
361.608,938.912,214.232,3.99,-184.87,5.88
338.672,932.08,223.992,3.36,-182.07,11.27
345.504,921.344,237.168,2.59,-178.92,16.87
338.672,901.336,225.944,1.54,-175.84,21.35
326.96,892.552,204.96,0.28,-172.69,24.78
298.656,865.712,190.32,-1.19,-169.4,27.23
290.36,848.632,173.728,-2.87,-165.83,27.93
297.68,860.832,142.984,-4.76,-162.4,26.11
304.024,868.64,127.368,-6.44,-159.25,22.19
307.928,862.296,126.88,-8.05,-156.1,17.43
309.392,859.368,115.168,-9.59,-153.02,12.74
311.344,839.36,88.328,-11.27,-149.87,7.98
326.96,837.408,72.224,-13.09,-146.72,2.73
333.792,843.752,37.576,-14.91,-143.78,-3.01
353.8,866.688,30.744,-16.38,-141.05,-9.03
367.952,900.848,25.376,-17.36,-138.6,-14.98
394.304,933.056,18.544,-17.64,-136.5,-20.93
422.608,963.8,18.056,-17.22,-134.89,-26.74
448.472,991.128,23.912,-16.17,-133.77,-31.92
445.544,995.032,41.48,-14.49,-132.93,-35.49
440.664,1005.768,37.576,-12.46,-132.02,-37.03
440.664,996.008,24.4,-10.22,-131.11,-37.31
434.32,987.712,10.736,-7.91,-130.13,-37.03
427.488,969.168,-4.392,-5.74,-129.22,-35.98
424.072,955.504,-23.912,-3.64,-128.24,-34.09
397.72,928.176,-39.04,-1.82,-127.12,-31.57
372.832,897.92,-51.24,-0.35,-125.65,-28.98
348.432,882.304,-73.2,0.63,-123.9,-27.09
338.672,869.128,-78.08,1.4,-121.87,-26.6
337.696,849.608,-77.592,1.82,-119.84,-27.72
347.944,844.24,-64.416,1.96,-117.74,-30.17
359.168,835.944,-73.688,1.96,-115.85,-32.83
366.0,839.36,-78.568,1.75,-113.89,-34.37
371.368,839.36,-66.368,1.26,-111.93,-33.46
365.024,835.944,-63.928,0.7,-109.76,-30.45
347.944,828.624,-70.272,-0.28,-107.52,-26.53
351.848,830.576,-73.2,-1.54,-105.14,-22.54
360.632,826.672,-80.032,-3.08,-102.83,-19.46
357.704,814.472,-75.64,-5.04,-100.73,-17.01
356.728,803.736,-81.984,-7.28,-98.7,-14.56
344.04,773.968,-80.52,-9.73,-96.67,-11.27
319.152,746.152,-65.392,-12.67,-94.5,-7.28
306.464,739.808,-50.264,-15.89,-92.19,-3.08
318.664,758.352,-62.464,-18.97,-90.02,0.49
348.432,751.032,-57.584,-21.84,-88.2,3.01
360.144,777.384,-89.792,-24.43,-86.8,5.81
354.776,827.16,-89.792,-26.11,-85.54,10.5
444.568,939.888,-104.92,-26.53,-84.42,17.78
432.856,924.76,-12.688,-24.99,-84.07,27.79
482.144,1091.168,-16.104,-22.33,-83.93,38.01
530.456,1215.608,-11.712,-17.22,-84.56,45.29
424.072,1194.624,29.768,-10.29,-85.82,49.42
341.6,1221.464,3.904,-2.87,-86.17,50.82
402.112,1335.168,-1.464,5.53,-86.59,47.18
445.544,1487.424,10.736,15.75,-88.48,35.98
285.968,1377.624,70.76,27.72,-91.14,18.27
817.4,1786.568,-59.536,39.48,-93.66,-3.22
1069.696,1756.312,43.432,55.16,-102.34,-30.1
787.632,1699.704,157.136,71.4,-113.26,-62.44
785.192,1812.432,213.744,87.92,-121.52,-96.6
682.224,1892.464,334.768,105.7,-127.89,-126.0
690.032,1897.344,381.128,123.83,-131.6,-145.67
662.216,1629.92,361.608,140.56,-133.28,-156.38
664.168,1210.728,216.184,151.34,-133.28,-159.53
576.816,598.776,71.248,153.51,-131.6,-156.38
409.432,268.4,-24.4,145.32,-127.12,-143.15
296.704,303.536,-19.52,129.92,-118.79,-111.93
269.864,461.16,42.944,111.79,-107.87,-59.99
260.104,681.736,97.112,94.01,-96.18,1.12
267.424,925.736,101.504,78.61,-85.19,54.46
295.24,1097.024,115.656,66.57,-75.39,90.37
355.752,1201.456,137.128,57.47,-66.64,108.22
411.384,1260.016,132.248,50.82,-59.08,112.63
454.816,1272.704,141.52,45.99,-52.29,108.92
479.704,1259.04,144.448,42.84,-45.99,101.71
507.032,1230.248,142.496,40.67,-39.9,94.57
523.624,1181.936,125.904,39.13,-33.95,89.25
526.552,1106.784,95.648,37.59,-27.93,86.8
548.024,1017.48,78.568,35.56,-21.84,86.52
540.216,952.088,43.432,32.62,-15.75,87.78
521.184,894.016,5.856,28.84,-9.38,89.6
479.704,813.984,-26.84,24.36,-2.52,90.72
514.84,801.296,-33.184,19.18,4.83,90.3
520.208,804.224,-41.968,14.14,12.11,91.0
496.784,821.792,-44.896,9.38,19.81,95.34
520.696,834.968,-51.728,5.18,27.93,104.09
549.976,788.608,-19.032,1.4,35.98,116.48
560.712,727.608,-61.976,-2.59,43.89,131.39
575.84,681.736,-95.16,-6.93,51.38,147.0
561.688,692.472,-124.44,-11.27,58.45,161.77
537.288,718.336,-137.616,-15.05,65.03,173.53
571.448,754.448,-126.392,-17.92,70.56,177.73
609.512,775.432,-112.728,-20.09,74.13,171.22
636.352,787.632,-73.2,-21.56,75.88,154.7
615.368,813.984,-99.064,-22.75,76.16,130.9
575.84,812.032,-144.448,-23.66,75.95,102.83
556.32,786.168,-105.896,-24.5,75.67,73.5
519.232,801.296,-118.096,-25.41,75.53,46.62
495.32,835.456,-157.136,-25.83,75.88,25.34
499.712,841.312,-169.336,-25.69,76.65,10.29
517.28,852.048,-206.424,-24.99,77.42,-0.07
523.136,845.216,-233.264,-24.22,77.91,-6.44
513.376,834.48,-244.0,-23.31,78.33,-9.1
532.896,837.408,-283.04,-22.47,78.61,-9.94
525.576,827.16,-309.88,-21.42,78.61,-10.99
515.328,804.224,-314.272,-20.37,78.47,-13.02
528.992,807.152,-337.208,-19.53,78.12,-16.73
531.92,807.64,-363.072,-18.69,77.21,-22.47
513.376,799.832,-371.856,-17.85,76.02,-29.47
513.376,803.248,-386.496,-16.94,74.69,-37.24
523.624,828.624,-438.712,-15.89,73.15,-45.99
548.512,835.944,-444.08,-14.35,71.12,-54.67
577.304,844.728,-397.232,-12.46,68.74,-61.6
574.376,841.312,-417.24,-10.15,66.01,-65.52
585.6,823.256,-392.84,-7.63,63.28,-66.43
597.312,816.912,-384.056,-4.97,60.34,-66.29
578.28,795.44,-405.04,-2.03,57.19,-65.45
560.712,791.536,-360.632,1.12,54.25,-63.49
582.184,825.208,-370.392,4.62,51.38,-61.25
584.136,820.328,-372.832,8.82,48.09,-58.87
569.984,822.28,-307.928,13.37,44.73,-55.86
583.16,791.536,-295.24,18.13,41.09,-53.48
601.704,803.248,-289.872,22.96,36.82,-52.85
618.784,825.696,-292.312,28.07,31.92,-53.69
627.08,822.28,-314.76,33.53,26.74,-54.04
598.776,826.672,-264.984,39.27,21.7,-51.59
567.544,841.8,-251.808,45.29,17.29,-45.85
521.672,827.16,-284.016,51.59,13.58,-37.59
481.656,805.688,-243.512,57.75,10.57,-28.49
447.984,565.104,-118.584,50.82,9.52,-17.64
376.736,727.608,-175.68,31.5,11.55,-6.37
435.296,480.68,-29.768,34.93,10.57,-0.98
409.92,908.168,-281.088,29.54,9.31,3.22
396.744,970.144,-264.984,29.12,7.07,3.92
351.36,850.584,-203.496,31.5,5.53,3.92
325.496,861.32,-200.08,37.03,4.62,3.78
305.976,935.984,-253.272,43.33,4.69,2.87
245.952,881.328,-251.32,49.56,5.88,0.91
239.12,833.504,-264.008,54.67,8.54,-1.75
252.784,853.512,-305.488,59.43,11.9,-5.18
292.312,879.376,-323.544,63.77,15.05,-8.75
340.136,894.992,-297.68,67.27,17.5,-10.92
386.984,934.52,-318.176,70.49,19.46,-10.92
423.096,974.536,-334.768,73.78,20.93,-8.75
465.064,1005.768,-321.592,77.35,21.91,-4.97
501.176,1019.432,-323.056,81.27,22.54,-0.14
517.768,1031.144,-333.304,85.68,22.75,5.11
527.04,1037.488,-348.432,90.3,22.68,9.87
536.312,1047.248,-359.656,94.92,22.4,13.51
531.92,1057.984,-370.392,99.68,22.12,16.8
534.848,1064.328,-409.92,104.37,22.12,20.72
510.936,1069.696,-404.064,109.06,22.26,26.46
503.616,1085.312,-400.16,113.47,22.61,34.23
533.384,1119.96,-430.904,117.74,22.68,43.26
547.536,1165.832,-464.576,122.15,22.19,53.06
556.32,1247.816,-476.288,127.05,21.21,64.26
535.336,1306.376,-494.832,132.16,20.02,77.07
524.112,1364.448,-561.2,137.62,18.69,88.62
524.6,1412.272,-643.184,143.22,17.08,94.01
524.112,1407.392,-690.032,148.54,15.12,90.72
536.8,1324.432,-706.624,151.9,13.3,78.54
558.76,1189.256,-801.296,151.62,11.9,57.82
583.16,1107.272,-933.544,147.14,10.92,30.1
587.552,1111.664,-976.488,139.72,10.57,-1.12
622.2,1198.528,-1010.648,130.97,10.85,-31.78
691.984,1292.712,-1082.872,122.22,11.41,-60.2
800.32,1354.688,-1191.696,113.68,11.55,-86.87
928.176,1372.744,-1314.672,105.0,10.78,-111.44
1055.056,1438.136,-1352.736,96.18,8.82,-132.23
1228.784,1468.88,-1399.096,87.85,5.39,-149.45
1396.656,1498.648,-1503.04,80.15,0.07,-163.1
1500.6,1495.232,-1629.92,73.43,-6.65,-170.17
1537.2,1416.664,-1647.0,67.55,-13.58,-168.28
1567.456,1282.952,-1728.008,61.39,-20.23,-160.37
1592.832,1176.08,-1763.144,54.6,-26.53,-152.32
1648.464,1081.896,-1824.144,47.32,-32.9,-150.29
1687.504,992.592,-1819.752,39.83,-39.69,-158.76
1765.584,862.296,-1794.376,31.99,-47.18,-179.06
1921.256,733.952,-1778.272,24.22,-56.07,-209.02
2094.008,650.992,-1665.056,16.73,-67.27,-239.4
2255.048,556.32,-1537.688,10.36,-80.85,-260.26
2428.776,457.256,-1430.816,5.46,-96.81,-268.8
2525.888,353.312,-1352.248,1.89,-114.8,-265.16
2523.936,249.856,-1267.336,-0.77,-133.49,-249.27
2468.304,157.136,-1176.08,-2.87,-151.97,-223.16
2374.608,17.08,-991.128,-4.55,-169.89,-190.89
2247.24,-154.696,-841.8,-7.35,-187.04,-157.36
2018.856,-273.28,-662.704,-11.9,-203.14,-126.49
1756.312,-377.224,-504.104,-18.13,-217.42,-103.53
1560.136,-488.488,-388.448,-26.04,-230.09,-95.27
1405.44,-591.456,-292.312,-35.14,-241.78,-103.6
1264.408,-625.128,-167.872,-44.45,-252.84,-122.64
1079.944,-599.264,-87.84,-52.57,-262.64,-143.5
900.36,-569.008,-50.264,-58.66,-270.27,-160.23
831.552,-589.504,-63.44,-62.86,-276.01,-172.69
760.792,-581.696,1.952,-65.73,-280.77,-181.51
711.504,-593.408,40.016,-67.48,-284.55,-185.01
648.552,-587.064,101.504,-68.67,-287.28,-181.65
609.024,-609.512,89.304,-69.93,-288.82,-171.22
523.136,-580.72,162.504,-71.61,-289.52,-155.75
458.232,-569.008,233.264,-73.85,-289.59,-140.49
369.904,-578.28,332.816,-76.51,-289.45,-130.69
348.92,-623.664,398.696,-79.59,-289.45,-127.26
240.096,-637.816,495.32,-83.09,-289.45,-126.0
49.288,-601.216,610.488,-86.73,-287.91,-120.89
-36.6,-651.968,612.44,-90.37,-284.34,-114.45
-25.376,-671.488,631.96,-94.85,-280.56,-113.33
-15.128,-660.264,706.136,-99.47,-277.76,-118.86
-8.784,-625.616,766.16,-103.67,-275.87,-126.84
-73.688,-632.448,864.736,-107.1,-274.4,-135.03
-162.016,-650.016,945.256,-110.11,-272.51,-143.36
-287.432,-664.168,1011.624,-112.98,-269.57,-150.64
-309.392,-676.368,1043.832,-115.85,-265.51,-156.59
-268.4,-682.224,1039.44,-119.0,-261.45,-161.98
-232.776,-650.016,1054.08,-122.29,-257.74,-165.27
-332.816,-598.288,1097.512,-125.65,-253.68,-165.13
-353.8,-549.488,1016.016,-129.43,-248.22,-164.29
-310.856,-499.224,969.168,-133.28,-242.48,-168.07
-295.24,-447.496,1003.328,-136.99,-237.44,-176.05
-386.984,-416.752,1083.848,-140.28,-232.33,-181.44
-577.304,-454.328,1098.976,-143.57,-225.33,-176.82
-810.568,-480.192,1164.368,-148.12,-215.04,-162.82
-849.608,-578.768,1086.288,-154.91,-202.09,-149.17
-725.168,-671.0,1012.112,-164.15,-190.05,-144.83
-604.632,-683.2,1016.016,-175.49,-180.81,-145.32
-456.28,-651.48,1103.856,-186.9,-174.65,-140.35
-455.304,-613.904,1281.488,-197.89,-170.8,-125.51
-395.768,-644.16,1306.376,-208.95,-168.14,-105.35
-377.224,-672.952,1435.208,-220.99,-167.44,-89.39
-423.096,-650.016,1483.52,-234.5,-168.63,-81.97
-333.304,-676.368,1479.616,-248.92,-172.2,-86.73
-261.08,-662.216,1488.4,-264.18,-179.41,-104.58
-198.128,-676.368,1564.528,-279.37,-190.33,-127.33
-194.712,-702.72,1667.008,-294.28,-203.7,-145.53
-177.632,-762.744,1809.504,-309.05,-218.26,-156.17
-301.584,-883.28,1952.0,-324.45,-233.24,-161.07
-440.176,-899.872,1987.624,-341.04,-247.1,-163.59
-426.024,-889.136,1876.36,-358.05,-260.26,-171.57
-482.632,-863.272,1920.768,-374.57,-275.03,-188.93
-485.072,-828.136,1928.576,-389.97,-291.34,-213.99
-412.36,-950.136,1958.344,-403.34,-310.87,-252.91
-248.88,-1183.888,1956.88,-415.52,-335.02,-305.76
22.448,-1465.464,2001.288,-426.02,-363.72,-353.57
289.872,-1665.544,2030.568,-434.77,-395.22,-373.1
470.92,-1841.224,1993.48,-441.63,-426.37,-358.61
797.88,-1926.136,1804.624,-447.72,-455.49,-325.36
1185.352,-2057.896,1472.296,-452.76,-484.61,-292.88
1391.776,-1964.2,1291.736,-455.63,-513.87,-264.53
1673.352,-1985.184,951.112,-453.25,-541.17,-239.19
1907.592,-1811.944,610.976,-444.15,-566.72,-224.07
1983.232,-1491.816,94.672,-424.83,-589.89,-217.49
2168.184,-1207.312,-634.888,-393.75,-608.3,-213.5
2388.272,-980.392,-1378.6,-352.03,-622.16,-209.65
2474.648,-750.544,-2091.08,-300.51,-630.07,-195.72
2548.336,-327.936,-2806.976,-241.08,-630.07,-165.27
2736.704,502.152,-3698.552,-173.32,-623.14,-130.2
3192.984,1431.304,-4707.248,-93.8,-613.62,-107.38
3734.664,2119.384,-5266.008,-1.12,-604.87,-90.79
3923.52,2277.008,-5708.624,100.87,-596.96,-63.84
3168.584,1622.6,-6296.664,203.84,-584.92,-20.37
1542.568,1893.44,-7235.088,300.09,-560.21,23.24
370.392,3335.48,-7546.432,402.08,-519.19,35.49
529.48,6069.744,-7102.352,530.25,-470.75,-8.96
2005.192,8834.264,-6309.84,698.39,-425.88,-102.34
3913.76,12718.744,-4799.968,907.27,-388.22,-188.16
6022.896,15774.112,-2671.8,1156.89,-359.87,-214.06
7479.088,15978.096,42.944,1424.99,-343.77,-173.67
7532.768,15978.096,2768.912,1680.77,-343.28,-85.12
5158.16,15976.632,2940.688,1874.04,-359.24,44.45
4262.192,10162.601,2675.216,1934.45,-381.92,230.09
4479.84,3925.472,-2806.488,1003.24,-392.77,1198.05
-941.352,9315.92,-5121.56,435.96,-693.07,972.86
1306.864,7929.024,-2836.256,668.64,-720.65,-100.94
3106.12,5176.216,-3688.304,838.25,-650.02,-673.26
4771.176,3364.76,-3654.632,896.21,-524.02,-543.9
5619.808,3230.072,-3723.44,858.13,-452.83,-22.61
5195.248,4115.304,-3679.52,767.41,-472.01,452.76
4341.736,5022.496,-3159.8,657.65,-537.74,622.09
3192.008,5100.576,-2223.328,560.35,-598.92,491.54
2248.216,4815.584,-1160.952,496.44,-624.19,233.59
2001.288,3989.4,-1281.488,464.87,-610.19,29.19
1970.056,3501.4,-2070.584,448.07,-571.62,-58.66
1759.24,3402.824,-2656.184,434.84,-523.46,-64.82
1486.936,3456.504,-3127.104,423.29,-472.92,-49.42
1494.256,3581.432,-3473.096,415.87,-423.85,-66.01
1577.704,3683.424,-3605.344,416.29,-376.67,-137.06
1529.88,3624.864,-3543.856,425.25,-327.46,-245.21
1406.904,3389.16,-3444.304,438.9,-271.11,-357.21
1271.24,3201.28,-3285.704,452.06,-205.45,-442.68
1134.112,2989.488,-3134.424,460.6,-132.58,-491.89
1075.552,2923.12,-2986.56,462.49,-56.07,-508.62
1140.456,2735.24,-2783.064,457.66,18.83,-505.26
1154.608,2656.184,-2680.096,446.46,88.69,-491.89
1159.976,2466.84,-2405.84,430.71,151.97,-469.98
1167.296,2281.888,-2131.096,411.18,207.62,-440.51
1146.8,2089.616,-1809.016,389.48,255.15,-402.22
1133.624,1950.536,-1632.848,367.5,294.21,-354.76
1112.152,1902.224,-1543.544,347.55,324.8,-304.5
1219.512,1822.68,-1459.608,330.12,347.55,-259.7
1382.992,1775.832,-1428.376,314.86,362.53,-224.63
1489.864,1605.032,-1407.392,300.86,370.65,-198.8
1479.128,1348.832,-1404.464,286.44,373.94,-174.3
1470.344,1027.24,-1428.376,270.69,374.22,-147.35
1459.12,745.664,-1493.28,252.77,371.56,-120.19
1418.128,601.216,-1533.784,233.52,366.31,-94.36
1424.472,530.456,-1492.304,214.27,358.75,-73.78
1366.888,555.344,-1425.936,196.07,349.16,-62.58
1271.728,519.72,-1342.488,178.99,338.66,-61.25
1202.92,417.728,-1243.912,162.05,328.3,-68.39
1140.456,302.072,-1141.92,144.13,318.36,-78.19
1047.248,270.84,-1061.4,125.72,309.05,-83.58
1016.992,229.36,-948.184,107.66,300.23,-85.75
961.848,238.144,-862.296,90.37,291.2,-87.29
870.104,305.976,-759.816,74.55,282.17,-87.64
772.504,371.856,-644.648,60.62,273.28,-90.02
726.632,396.744,-542.168,48.37,264.53,-100.24
697.84,399.184,-455.304,36.68,255.36,-118.93
653.432,413.824,-367.464,25.34,246.05,-140.28
646.6,403.576,-315.248,14.42,236.95,-159.53
621.224,408.944,-259.616,3.92,227.78,-172.97
576.328,426.024,-189.832,-5.6,218.75,-179.76
577.792,434.32,-147.376,-14.14,209.93,-183.4
569.496,428.464,-91.744,-21.49,200.76,-186.34
524.6,458.232,-20.984,-27.86,191.38,-188.3
494.832,480.192,2.44,-33.04,182.21,-190.26
510.936,486.536,35.624,-37.1,172.97,-193.34
496.296,514.84,124.44,-40.32,163.38,-197.12
447.984,537.776,195.688,-42.56,153.86,-201.53
420.656,546.56,235.704,-43.96,144.62,-207.55
436.272,581.208,263.032,-44.66,135.52,-214.34
408.456,584.624,284.016,-44.73,126.63,-220.57
382.104,541.68,266.448,-44.73,118.37,-225.47
379.664,533.384,259.616,-44.87,110.67,-228.27
361.608,535.336,294.752,-44.8,103.46,-227.22
328.912,557.784,323.056,-44.45,96.81,-222.88
307.44,568.032,300.608,-43.54,90.72,-217.49
316.224,586.088,346.48,-42.28,85.05,-212.94
294.752,575.352,376.248,-40.67,79.59,-211.12
301.584,561.688,367.952,-38.99,74.48,-212.87
345.504,549.976,362.584,-37.52,69.3,-215.81
363.072,547.536,381.128,-35.98,63.91,-216.79
356.24,543.144,396.744,-34.23,58.52,-214.48
362.096,515.816,416.752,-32.34,53.34,-209.86
412.36,517.28,453.352,-30.45,48.09,-203.98
428.952,530.944,473.36,-28.21,42.35,-197.82
399.184,471.408,480.68,-25.83,36.68,-191.87
389.424,447.008,480.68,-23.87,31.29,-185.99
402.6,452.864,491.904,-21.98,26.18,-179.76
409.432,453.84,507.52,-19.88,21.07,-172.83
412.848,474.824,536.8,-17.5,16.1,-165.34
434.32,505.08,593.408,-14.84,11.2,-157.43
463.112,531.92,682.712,-11.9,6.16,-149.59
486.536,554.368,747.616,-8.61,0.91,-142.73
526.552,589.504,799.832,-5.25,-4.69,-137.76
593.896,675.392,855.952,-1.54,-10.85,-134.26
673.44,819.84,933.544,3.36,-17.64,-131.81
732.976,962.824,1008.696,10.01,-25.13,-129.57
797.88,1060.912,1064.816,18.41,-33.04,-126.56
810.08,1077.504,1125.328,28.0,-41.02,-121.1
814.96,1120.936,1177.056,37.66,-48.58,-112.21
818.376,1172.176,1161.928,47.46,-55.65,-101.22
802.272,1201.944,1158.024,57.05,-62.09,-89.53
761.768,1214.144,1152.168,66.08,-67.76,-77.98
720.288,1262.944,1113.128,74.27,-72.24,-66.71
695.4,1294.176,1082.384,81.76,-75.67,-56.28
649.04,1256.6,1038.464,88.06,-78.12,-48.09
590.48,1214.144,968.68,92.61,-79.38,-42.77
545.584,1207.8,924.272,95.34,-79.38,-39.27
454.328,1162.904,887.672,96.67,-78.12,-36.61
403.576,1099.952,801.296,96.18,-75.53,-35.63
406.016,1028.704,709.552,93.8,-72.1,-36.4
371.856,920.856,619.272,89.39,-68.53,-37.59
313.784,818.376,519.232,83.16,-64.47,-36.82
279.136,748.104,442.616,75.46,-59.99,-31.99
224.968,683.2,393.328,67.06,-55.16,-22.54
176.168,633.912,348.92,58.45,-50.12,-8.89
149.328,588.04,312.808,49.91,-45.22,6.58
119.072,543.632,297.68,41.37,-40.81,19.81
92.232,500.688,265.472,32.83,-36.82,27.72
78.568,476.776,241.56,24.15,-33.39,29.12
45.384,450.912,225.456,15.68,-30.38,25.41
6.832,429.44,204.472,7.35,-27.44,19.11
-15.128,424.072,186.904,-0.7,-24.36,12.95
-22.936,423.584,191.296,-8.12,-21.21,8.54
-32.696,416.752,189.832,-14.91,-18.27,5.39
-44.408,429.928,172.264,-21.42,-15.47,2.73
-26.352,473.36,161.528,-27.23,-13.02,-0.28
-11.712,493.368,178.12,-32.34,-11.41,-4.41
-19.032,488.0,198.616,-36.75,-10.43,-10.15
-4.392,545.096,177.144,-40.81,-9.8,-16.38
21.96,639.768,169.336,-43.82,-9.73,-21.07
40.016,702.232,185.928,-45.57,-10.08,-23.59
32.208,753.96,183.488,-46.41,-10.85,-24.85
79.544,836.92,196.176,-46.48,-11.9,-26.81
127.368,897.92,232.288,-45.78,-13.79,-31.5
153.72,936.96,265.96,-44.52,-16.52,-39.55
204.96,986.736,278.16,-42.91,-20.02,-50.19
255.224,1049.2,281.088,-40.81,-24.29,-61.95
250.832,1082.872,301.584,-38.08,-29.26,-72.45
259.128,1122.888,318.176,-35.0,-34.23,-80.57
277.672,1147.776,303.536,-31.57,-39.27,-86.38
269.864,1136.552,309.392,-28.0,-44.24,-90.02
285.48,1151.68,334.768,-24.5,-49.0,-91.42
271.816,1151.192,335.744,-21.0,-53.69,-90.79
284.504,1161.44,330.376,-17.78,-58.1,-89.11
267.424,1159.976,345.016,-14.77,-62.44,-87.15
263.52,1181.448,347.456,-11.97,-66.64,-85.33
290.36,1212.68,369.904,-9.03,-70.91,-84.14
309.392,1230.248,408.944,-5.81,-75.67,-83.93
319.64,1247.328,437.736,-2.31,-80.71,-84.21
325.008,1253.672,475.8,1.54,-85.75,-84.0
304.024,1253.184,516.792,5.74,-90.72,-82.74
230.824,1209.264,533.872,10.01,-95.06,-80.15
146.888,1154.608,506.544,13.79,-98.21,-76.09
82.472,1099.952,473.848,16.94,-100.1,-70.7
15.616,1025.288,458.72,19.53,-101.01,-64.47
-19.52,964.288,427.976,21.21,-101.22,-58.17
-55.144,917.928,396.256,22.26,-101.01,-52.78
-107.848,877.912,378.688,22.68,-100.45,-48.72
-150.792,834.968,371.368,22.75,-99.54,-46.2
-162.992,818.864,367.952,22.26,-98.42,-45.5
-188.368,792.512,365.512,21.56,-97.23,-46.41
-204.472,753.472,355.264,20.51,-95.97,-48.86
-216.672,726.144,327.936,19.18,-94.5,-51.87
-213.744,699.304,320.616,17.64,-92.96,-54.25
-200.08,671.488,331.352,15.96,-91.49,-54.81
-187.392,659.776,353.312,14.28,-90.02,-52.71
-176.656,669.536,373.32,12.67,-88.69,-48.51
-168.848,659.776,386.008,11.2,-87.43,-43.4
-157.136,654.408,399.672,9.59,-86.38,-38.71
-149.816,655.384,414.312,7.91,-85.54,-35.14
-145.424,660.752,427.0,6.23,-84.91,-33.11
-135.664,677.344,447.496,4.69,-84.35,-32.62
-131.76,691.496,466.04,3.22,-84.0,-33.04
-130.296,700.768,480.68,2.1,-83.58,-33.39
-140.544,725.656,508.008,0.98,-82.95,-32.97
-161.528,736.392,525.576,0.28,-82.04,-31.78
-154.208,775.92,541.192,-0.35,-80.92,-30.45
-144.936,793.0,556.808,-0.77,-79.87,-29.68
-144.448,807.64,574.864,-0.98,-78.89,-29.4
-136.152,833.992,584.624,-1.12,-77.98,-29.26
-133.224,842.288,591.456,-1.05,-77.07,-29.19
-130.784,855.464,599.752,-1.05,-76.09,-28.63
-123.952,883.768,605.608,-0.91,-75.04,-27.09
-120.536,901.336,606.584,-0.7,-73.92,-24.99
-110.776,909.144,610.976,-0.35,-72.8,-22.75
-99.552,924.76,615.856,-0.14,-71.68,-20.86
