acc_x[mg],acc_y[mg],acc_z[mg],gyro_x[dps],gyro_y[dps],gyro_z[dps]
946.72,-42.944,233.752,-29.26,9.38,18.55
948.184,-48.312,234.728,-28.42,9.52,20.86
943.304,-58.56,244.976,-27.79,9.66,22.19
941.84,-60.512,256.2,-27.09,9.87,21.91
945.256,-56.12,267.424,-26.53,10.15,20.3
952.576,-47.336,274.256,-25.83,10.36,18.13
957.456,-38.064,267.912,-24.92,10.71,16.38
966.728,-34.16,263.032,-23.87,10.99,15.19
974.536,-29.28,257.664,-22.68,11.2,14.35
982.832,-27.816,250.344,-21.35,11.34,13.44
980.392,-21.96,246.44,-19.74,11.27,12.39
980.88,-14.64,246.44,-18.13,11.13,10.99
985.272,-12.2,244.976,-16.17,10.78,9.66
983.32,-13.176,244.0,-14.21,10.36,8.26
978.44,-13.664,243.512,-12.11,9.8,6.93
988.2,-21.96,242.536,-9.87,9.17,5.95
989.664,-31.72,243.024,-7.56,8.47,5.53
986.736,-29.28,252.296,-5.39,7.7,5.81
990.64,-32.696,261.08,-3.08,6.93,6.58
983.808,-48.8,267.912,-0.84,6.23,7.07
973.072,-64.904,273.768,1.19,5.6,7.0
967.216,-82.472,277.672,3.15,5.11,6.65
973.072,-95.16,284.016,4.9,4.83,6.79
971.608,-98.576,290.848,6.65,4.69,7.49
976.0,-108.336,287.92,8.47,4.62,8.4
974.536,-118.584,286.944,10.29,4.62,9.03
980.392,-138.104,288.408,12.04,4.69,9.17
991.128,-155.184,294.752,13.58,4.62,9.38
1000.888,-164.456,310.856,14.98,4.48,10.29
1008.208,-164.944,327.936,16.38,4.2,12.53
1004.792,-170.8,339.16,17.78,3.85,15.54
998.936,-186.416,352.336,18.9,3.57,18.62
992.592,-186.416,348.432,19.95,3.29,21.7
983.32,-205.448,362.584,20.72,3.15,25.2
961.36,-224.968,370.392,21.21,3.22,28.49
950.136,-241.56,382.104,21.63,3.5,30.66
939.888,-252.784,393.328,21.84,3.92,31.78
931.104,-260.104,408.944,22.05,4.41,32.27
929.64,-267.424,420.168,22.4,5.04,32.55
934.52,-272.304,430.904,22.82,5.46,32.97
927.688,-272.304,439.688,23.31,5.95,33.81
922.808,-273.768,446.032,23.94,6.51,34.93
911.096,-270.352,453.84,24.5,7.07,35.49
901.336,-270.84,452.376,25.13,7.56,34.72
900.848,-276.208,444.568,25.83,7.98,32.9
898.896,-291.336,442.616,26.46,8.19,30.38
890.112,-296.704,444.08,27.16,8.4,27.93
885.232,-310.368,448.96,27.79,8.47,26.11
891.576,-320.616,446.032,28.35,8.4,24.78
903.288,-330.376,441.64,28.91,8.12,23.73
910.608,-342.088,443.592,29.33,7.63,22.96
886.208,-337.208,463.112,29.68,6.86,22.26
861.32,-343.064,480.192,29.96,6.16,20.51
917.44,-360.632,440.176,30.1,5.18,17.43
910.608,-362.584,422.608,30.03,3.64,14.35
884.744,-358.68,428.464,29.89,2.17,12.11
872.544,-366.0,433.344,29.68,0.84,10.36
860.344,-375.272,429.44,29.33,-0.28,9.1
857.416,-380.64,432.368,28.63,-1.26,8.12
855.464,-386.496,430.904,27.86,-2.17,7.63
848.632,-388.936,431.88,26.81,-2.87,7.49
858.88,-368.928,427.0,25.69,-3.36,7.7
860.832,-364.048,408.456,24.71,-3.78,8.12
858.392,-355.752,393.328,23.73,-3.99,9.17
873.52,-357.704,392.352,22.89,-4.06,10.5
877.912,-372.832,410.408,21.98,-3.99,11.9
851.072,-355.264,432.368,21.07,-3.71,13.09
830.576,-342.088,446.52,20.3,-3.15,13.51
841.312,-353.312,447.984,19.74,-2.31,12.95
858.88,-358.68,443.592,19.11,-1.47,11.83
863.272,-354.288,439.2,18.41,-0.63,10.36
891.576,-354.288,431.392,17.85,0.28,9.24
998.936,-372.832,409.432,17.15,0.91,8.96
1071.16,-373.32,379.664,16.24,0.28,10.29
1010.16,-354.776,429.44,15.26,-0.98,14.07
1017.48,-323.056,476.288,14.42,-2.1,20.02
991.128,-311.344,490.44,13.86,-3.5,26.67
955.992,-323.056,483.12,13.51,-4.62,33.74
913.048,-348.432,449.448,13.02,-5.46,40.32
826.672,-358.192,432.856,12.39,-5.6,45.92
793.0,-383.568,427.488,11.41,-4.83,49.84
799.832,-407.48,425.048,10.29,-3.85,51.45
846.192,-410.896,404.064,8.89,-2.87,51.66
848.632,-337.696,379.176,7.63,-2.24,52.08
789.096,-300.12,386.008,7.35,-1.47,52.92
757.864,-353.312,391.864,7.42,-0.14,51.1
698.816,-409.92,398.208,7.14,1.61,44.17
689.544,-441.152,390.4,6.58,3.99,33.6
737.856,-437.736,350.872,5.95,6.44,23.59
771.528,-413.336,350.872,5.74,8.68,17.57
802.76,-415.776,352.824,5.81,10.64,16.17
812.032,-396.744,335.744,5.95,12.11,16.66
805.2,-378.2,324.032,6.09,13.09,16.03
793.0,-377.712,316.712,6.02,13.72,12.39
807.64,-389.424,303.536,5.6,14.07,5.95
827.648,-383.568,283.528,4.9,14.0,-1.12
861.32,-371.368,268.888,3.99,13.58,-6.09
880.352,-298.168,255.712,2.8,12.67,-10.08
933.056,-312.32,250.832,1.33,10.78,-14.49
959.408,-315.248,250.344,-0.21,7.91,-15.54
967.704,-306.464,238.632,-1.47,4.69,-13.65
936.472,-267.424,222.04,-2.45,1.12,-11.83
949.648,-247.416,208.376,-3.43,-3.08,-15.54
912.56,-226.432,197.152,-4.55,-7.98,-25.13
928.664,-216.672,191.784,-5.81,-13.09,-37.94
972.584,-242.536,203.984,-7.28,-18.55,-51.87
980.88,-246.44,213.744,-8.89,-23.87,-64.05
984.296,-248.392,228.872,-10.36,-28.63,-73.08
1006.744,-256.2,224.48,-11.76,-32.62,-78.89
1027.728,-262.544,211.792,-13.09,-36.19,-81.97
1022.848,-268.888,217.648,-14.35,-39.34,-82.46
1036.024,-275.72,223.504,-15.54,-41.79,-80.85
1053.104,-274.256,225.456,-16.73,-43.96,-77.7
1063.84,-257.176,237.168,-17.85,-45.85,-73.36
1075.064,-246.44,246.928,-18.76,-47.46,-68.6
1079.456,-223.504,252.784,-19.46,-48.93,-64.33
1072.624,-195.688,249.856,-19.81,-50.05,-60.55
1063.352,-174.216,240.584,-19.95,-50.89,-56.98
1047.736,-158.112,229.36,-19.88,-51.24,-53.69
1042.856,-149.328,207.888,-19.67,-51.31,-50.96
1036.512,-137.616,195.2,-19.39,-51.17,-48.86
1032.12,-123.952,197.64,-19.04,-50.89,-47.88
1016.504,-134.688,186.416,-18.69,-50.61,-48.16
1007.72,-147.864,193.736,-18.48,-50.26,-49.21
1015.528,-147.864,202.032,-18.55,-49.77,-49.63
1016.992,-141.032,206.424,-18.62,-49.42,-48.16
1018.456,-135.176,206.912,-18.69,-49.14,-44.03
1029.192,-138.592,200.568,-18.9,-48.86,-37.66
1027.24,-134.688,189.832,-19.18,-48.72,-29.96
1025.776,-133.224,185.44,-19.46,-48.79,-21.42
1026.752,-128.344,171.288,-19.88,-48.93,-12.88
1019.432,-124.44,157.136,-20.51,-49.28,-4.83
1011.624,-123.952,142.008,-21.21,-49.91,2.17
988.688,-113.704,140.544,-22.05,-50.75,8.05
959.408,-91.256,128.832,-22.89,-51.59,13.16
942.328,-79.544,98.088,-23.45,-52.29,17.36
930.128,-62.952,80.032,-24.08,-52.92,20.51
918.904,-35.624,62.952,-24.43,-53.48,23.17
918.416,-12.688,32.208,-24.57,-54.18,25.34
910.12,10.736,9.272,-24.57,-54.88,27.16
900.36,20.984,-20.984,-24.5,-55.58,28.56
897.92,21.96,-37.576,-24.5,-56.21,29.68
906.216,29.768,-43.432,-24.64,-56.91,31.29
936.96,22.448,-52.216,-24.92,-57.75,33.32
962.824,-0.488,-55.144,-25.55,-59.01,35.49
985.272,-19.032,-49.288,-26.67,-60.48,37.31
1027.728,-55.144,-29.768,-28.35,-62.02,38.5
1073.112,-98.088,10.248,-30.52,-63.98,38.57
1139.968,-141.52,69.784,-33.25,-66.36,37.03
1179.496,-147.864,109.312,-36.47,-69.23,33.95
1174.128,-154.696,133.224,-39.48,-71.89,28.28
1188.28,-178.12,153.72,-42.21,-73.85,18.9
1199.504,-164.456,143.96,-44.31,-75.04,5.32
1220.488,-150.304,143.472,-45.36,-75.46,-11.76
1190.232,-146.888,147.376,-45.08,-74.9,-31.22
1151.68,-114.192,136.152,-43.33,-72.8,-50.89
1132.16,-76.128,100.528,-39.83,-68.67,-67.13
1136.064,-48.312,63.928,-34.79,-62.72,-76.65
1125.816,-24.888,48.8,-28.63,-55.37,-78.47
1101.416,-17.568,59.048,-21.56,-46.62,-73.78
1065.792,-15.128,69.296,-14.07,-36.82,-65.03
1026.752,-25.376,82.472,-6.51,-26.25,-55.58
993.08,-56.608,103.456,0.84,-15.33,-48.65
962.824,-87.352,139.568,7.56,-4.41,-45.43
955.016,-120.048,169.336,13.44,6.16,-44.87
958.432,-146.888,197.152,18.48,16.1,-44.59
969.656,-168.848,223.504,22.68,25.13,-42.63
976.976,-169.824,224.48,26.18,33.25,-38.08
986.248,-180.072,223.992,29.26,40.53,-30.66
980.88,-194.712,218.136,31.78,47.04,-20.44
985.76,-200.568,206.424,33.95,52.78,-7.21
1004.792,-180.072,192.272,35.91,57.82,9.45
1021.872,-172.264,174.216,37.87,61.81,27.79
1020.408,-158.6,161.04,39.76,64.68,44.73
1015.04,-129.808,153.232,41.65,66.43,57.82
1008.208,-96.624,156.16,43.61,67.27,65.45
976.976,-83.448,155.184,45.64,67.2,66.5
957.944,-86.376,134.2,47.46,66.71,60.76
954.04,-70.272,95.648,48.93,65.87,50.54
982.832,-71.248,115.168,50.26,64.82,39.97
946.232,-69.296,115.168,51.38,63.42,30.1
972.096,-58.072,77.592,52.36,62.09,21.49
979.904,-59.048,60.024,53.41,60.62,14.56
966.24,-90.28,51.728,54.32,59.01,9.31
1014.552,-88.328,62.464,54.81,57.4,6.23
973.072,-83.448,45.872,55.23,55.44,3.85
985.76,-69.296,29.28,55.51,53.62,0.63
966.24,-49.288,16.592,56.0,51.73,-3.29
966.728,-55.632,13.176,56.56,50.05,-8.33
980.392,-57.584,-13.176,57.05,48.23,-14.49
963.312,-33.672,-43.92,57.47,46.55,-20.37
955.504,-18.544,12.2,58.24,45.36,-23.8
966.24,-30.744,-63.928,59.64,44.38,-26.39
945.744,-24.4,-72.712,60.69,43.61,-27.72
955.016,-12.2,-70.76,61.95,43.05,-26.67
946.232,162.504,-40.992,63.21,42.7,-24.43
825.208,150.792,-20.496,63.56,42.35,-35.0
893.528,250.832,6.832,60.48,42.14,-55.16
1022.848,202.032,6.344,55.58,40.88,-65.52
978.928,210.328,3.904,48.93,38.08,-62.16
975.024,75.152,0.976,42.77,35.28,-50.54
977.952,-14.152,-0.976,36.82,32.27,-33.04
929.64,-48.312,23.424,31.64,29.4,-12.32
1029.192,-78.568,41.968,27.51,27.37,8.4
863.76,-40.016,86.376,24.71,26.18,26.46
871.568,-75.64,123.952,23.73,26.95,42.35
825.696,-129.808,155.672,23.94,27.09,55.93
735.416,-169.824,238.632,24.92,27.3,67.2
662.216,-149.816,266.936,25.97,27.93,74.13
567.056,-121.512,282.064,27.02,28.77,78.4
685.64,-172.752,377.224,28.07,29.33,82.25
860.344,-392.352,406.016,27.93,27.44,82.32
881.816,-273.768,468.968,25.69,23.24,79.66
881.328,-117.608,468.48,24.43,18.34,77.42
848.144,-79.544,470.92,24.57,13.58,76.16
845.216,-43.92,521.672,25.9,9.24,74.76
984.296,-162.016,615.368,28.14,4.48,69.02
992.104,-231.8,691.008,29.4,-1.33,57.68
875.96,-190.32,671.0,29.96,-6.58,44.24
1091.168,-287.92,669.536,30.8,-10.15,34.51
1254.648,-286.944,802.76,31.71,-14.14,30.66
1336.632,-278.648,860.832,33.74,-18.06,33.25
1418.128,-305.0,909.144,36.89,-21.07,41.79
1479.128,-446.032,905.24,40.53,-22.96,52.99
1179.496,-571.448,807.152,42.91,-23.03,61.39
147.864,-348.92,588.04,44.17,-15.19,63.49
-282.552,217.648,737.368,49.28,8.47,58.1
512.4,191.296,898.896,60.55,39.62,49.0
723.216,679.296,1017.48,75.46,66.57,40.88
669.048,736.392,1010.648,94.85,90.79,21.07
782.264,705.648,929.152,114.52,113.54,-21.56
805.2,591.456,1206.336,132.86,134.82,-71.33
873.032,450.912,1327.848,148.75,155.4,-107.52
1009.184,313.784,1459.12,161.56,174.3,-118.09
1246.84,289.384,1601.128,172.27,189.49,-101.5
1375.184,135.176,1775.832,182.14,198.38,-68.04
1432.28,127.368,1619.672,190.26,201.25,-39.34
1551.352,214.72,1628.944,197.82,199.36,-27.23
1697.752,361.12,1626.016,205.73,193.69,-29.54
1682.136,309.392,1582.584,214.34,185.64,-40.04
1637.24,244.488,1499.136,222.04,177.73,-54.11
1581.608,186.904,1359.568,228.76,171.01,-64.47
1509.872,122.0,1308.816,234.15,166.39,-68.46
1381.04,118.096,1207.8,238.35,163.45,-69.09
1347.856,105.408,1155.584,241.5,161.28,-74.69
1373.232,157.624,1062.376,243.67,158.76,-82.18
1371.768,189.344,954.528,244.86,155.89,-87.36
1317.112,179.096,837.896,244.72,152.88,-87.92
1251.72,137.128,709.064,242.76,149.73,-85.54
1146.312,100.04,590.968,238.84,146.23,-81.62
1077.016,90.768,505.08,233.03,142.24,-74.48
1029.68,103.944,451.4,225.61,137.13,-60.2
979.416,117.608,405.04,217.0,130.13,-44.24
956.968,201.056,354.776,207.69,121.45,-37.03
865.712,232.288,246.928,198.24,111.51,-45.71
887.672,223.016,182.512,188.23,102.13,-63.63
946.232,235.216,103.944,177.73,92.82,-69.51
935.496,214.232,87.352,166.95,82.81,-56.35
935.008,234.24,72.224,155.4,71.47,-33.95
954.04,279.624,45.384,143.08,58.1,-15.89
896.944,328.424,-24.4,130.41,43.05,-13.09
848.144,377.712,-110.776,117.6,28.21,-26.39
833.992,385.52,-256.2,105.14,14.77,-45.78
833.992,316.224,-327.448,93.03,2.87,-57.89
852.048,256.2,-414.8,80.57,-7.98,-51.66
867.664,209.352,-515.328,67.34,-18.69,-26.95
966.728,234.728,-619.76,53.34,-30.17,4.97
1027.24,258.64,-732.488,38.99,-43.26,26.11
1174.128,268.888,-862.784,24.43,-57.75,25.13
1409.344,181.048,-993.08,9.94,-73.71,8.68
1690.432,-62.464,-1142.896,-5.6,-91.42,-8.4
1979.816,-268.888,-1293.2,-23.45,-110.74,-7.77
2124.752,-508.008,-1420.08,-44.31,-130.97,17.01
2203.32,-718.336,-1595.76,-69.16,-150.64,53.9
2350.696,-785.68,-1825.12,-98.21,-169.05,88.06
2515.64,-798.368,-1979.816,-130.34,-187.32,104.65
2885.544,-732.0,-2362.896,-164.08,-206.85,94.64
3541.904,-566.568,-2801.608,-198.1,-230.09,71.05
3957.192,-710.528,-3436.984,-232.89,-260.4,39.41
4468.616,-1360.544,-3774.192,-273.91,-300.02,-15.54
5470.48,-2699.616,-3599.488,-328.23,-356.16,-86.38
6529.928,-4227.544,-2566.88,-402.85,-437.5,-151.76
7432.24,-6220.536,-1045.784,-507.15,-540.12,-185.92
7785.552,-8083.232,954.04,-628.04,-665.98,-182.7
7458.592,-9779.521,3231.048,-772.24,-797.86,-128.59
7162.864,-10759.424,5776.456,-936.46,-916.72,-23.17
4715.056,-4147.512,6143.92,-1041.18,-1011.64,78.89
7957.816,-6722.2,4351.984,-608.16,-1032.71,-194.81
7696.736,-7238.992,5195.736,-529.41,-1092.7,82.74
5773.528,-5030.304,6978.888,-647.01,-1127.0,401.73
5503.664,-2965.088,5096.672,-743.82,-1085.42,378.63
5166.944,-427.0,3235.928,-733.53,-1046.99,134.12
4901.96,-176.656,2022.272,-639.1,-1026.48,-104.79
3854.224,-475.8,1290.76,-502.88,-1009.47,-209.23
2565.416,-586.576,652.456,-364.0,-972.02,-197.54
1690.92,-679.784,256.2,-241.29,-910.35,-130.27
1332.24,-672.952,195.2,-139.58,-836.99,-61.39
1366.4,-492.88,292.312,-56.77,-767.97,-28.56
1345.904,-301.584,402.6,13.51,-708.4,-29.19
1201.944,-48.8,223.504,75.67,-655.27,-55.93
984.784,-276.208,184.464,131.04,-604.1,-110.46
813.984,-638.792,260.104,176.96,-551.74,-174.23
762.256,-989.176,258.64,210.21,-498.12,-217.28
651.48,-1093.608,268.4,229.88,-444.99,-221.62
535.336,-1050.664,103.456,238.0,-393.4,-195.51
433.344,-843.752,-119.56,237.79,-344.19,-158.2
406.504,-497.76,-203.984,233.1,-298.13,-122.01
400.16,-186.904,-359.168,226.52,-255.29,-83.02
392.84,-49.288,-449.936,217.7,-215.88,-43.4
399.672,5.368,-460.672,205.45,-179.76,-13.79
374.296,82.472,-463.6,190.96,-146.72,0.56
308.416,31.232,-476.776,175.14,-115.5,0.49
284.992,75.64,-471.896,158.62,-85.19,-6.72
375.76,64.416,-577.304,142.17,-56.07,-10.36
470.432,104.432,-695.4,125.86,-29.19,-9.1
449.448,144.448,-855.952,110.39,-4.06,-7.07
286.456,130.296,-954.04,96.04,20.72,-7.77
35.136,41.968,-929.64,82.6,46.83,-13.02
-192.272,26.84,-863.272,69.58,74.97,-20.65
-380.64,-9.76,-876.936,57.54,104.72,-25.41
-580.232,8.784,-894.992,46.62,136.01,-23.73
-660.752,32.208,-991.616,37.38,168.42,-15.12
-645.136,43.432,-987.224,29.82,200.48,-1.19
-641.232,98.088,-1000.4,24.08,230.93,16.17
-652.944,118.584,-1051.152,20.16,259.63,32.55
-629.52,126.392,-1069.696,17.64,286.65,42.35
-522.16,90.768,-1056.032,16.03,311.29,45.78
-504.592,78.568,-1032.12,14.42,333.41,46.41
-511.912,8.784,-1040.416,12.53,353.92,43.96
-433.344,-88.328,-1077.992,9.94,372.96,36.75
-262.544,-66.368,-1087.264,6.3,389.69,31.78
-32.696,-43.92,-1105.32,3.43,403.27,34.51
236.68,-68.808,-1191.208,2.17,412.93,40.39
444.08,-147.376,-1289.784,2.03,418.46,46.48
227.896,54.168,-1345.416,3.08,421.68,52.22
183.976,113.216,-1482.544,7.56,426.16,55.02
417.728,47.824,-1589.416,13.37,429.73,48.93
730.048,11.224,-1545.984,18.76,429.52,37.1
1054.08,-46.36,-1397.144,23.66,424.69,26.74
1332.728,-113.216,-1278.56,27.86,415.17,20.72
1392.264,-92.72,-1292.712,31.92,402.29,19.88
1237.568,54.168,-1324.92,37.31,389.34,23.52
1187.304,150.304,-1409.344,45.15,378.28,28.42
1256.6,146.4,-1492.304,54.74,368.13,30.94
1310.28,97.112,-1409.344,64.47,357.28,29.61
1394.704,10.736,-1257.576,73.36,345.59,26.81
1399.096,-21.96,-1146.8,80.99,332.57,25.13
1317.6,-20.008,-1036.024,87.92,319.41,22.68
1262.944,-31.72,-986.248,94.36,306.88,16.66
1213.656,4.88,-951.112,100.24,295.19,6.51
1182.912,12.688,-852.048,105.98,284.41,-6.79
1171.688,-17.568,-730.536,110.88,274.4,-21.35
1175.104,-35.136,-632.936,114.59,265.02,-34.09
1161.928,-40.504,-543.632,117.67,256.13,-42.42
1133.624,-56.608,-494.344,120.12,247.87,-45.5
1143.384,-81.496,-495.32,122.22,240.17,-43.26
1150.704,-85.888,-533.872,124.25,232.61,-36.4
1127.768,-109.8,-547.536,126.21,225.12,-26.25
1100.44,-159.088,-537.776,128.1,217.63,-15.89
1069.208,-196.664,-512.888,129.36,210.0,-7.77
1019.432,-227.408,-462.136,130.06,202.51,-1.68
979.904,-235.216,-417.24,130.34,195.37,2.59
951.112,-212.768,-346.48,130.2,188.58,5.25
951.6,-211.304,-394.792,129.92,181.93,5.95
1022.36,-242.048,-441.64,129.22,175.07,3.85
1071.648,-257.664,-434.32,127.89,167.58,-0.07
1074.088,-227.896,-392.84,126.14,159.88,-3.43
1098.976,-141.52,-335.256,124.53,152.46,-4.76
1125.328,-70.272,-389.424,123.55,145.11,-5.39
1110.2,-59.536,-399.672,122.85,137.76,-6.37
1060.424,-47.824,-319.64,121.87,130.76,-7.98
1062.376,-46.848,-230.336,120.47,124.25,-9.17
1125.328,-49.776,-227.408,118.79,117.6,-8.47
1177.544,-55.632,-211.304,116.83,110.32,-5.04
1205.36,-27.328,-183.976,114.87,102.48,2.03
1226.832,73.2,-178.608,113.33,94.08,13.58
1212.68,106.384,-127.856,112.77,85.33,27.65
1128.256,301.584,-101.016,112.21,76.3,39.97
1082.384,205.936,-81.984,111.44,67.2,37.66
996.496,196.176,-36.6,108.71,58.45,30.17
823.256,397.72,-8.296,105.42,51.1,18.9
841.8,365.024,-42.456,101.01,44.52,-5.67
811.056,274.744,-27.328,95.34,38.36,-28.07
751.52,167.872,-6.344,90.09,33.11,-38.57
688.08,216.672,37.576,85.75,28.7,-34.3
736.392,441.152,85.4,82.25,24.01,-26.67
708.576,499.224,121.512,79.52,18.06,-25.48
330.864,557.784,121.024,75.39,11.97,-28.91
902.8,187.392,-33.184,69.3,6.37,-29.47
711.016,76.128,-23.912,61.95,-1.05,-20.44
567.056,19.52,103.456,56.28,-5.95,-2.8
648.064,-60.512,123.464,52.08,-8.82,19.67
612.928,122.488,124.928,49.14,-10.85,47.46
883.768,167.872,185.928,48.3,-12.6,74.34
990.152,238.632,318.664,48.51,-16.31,94.22
1036.512,170.312,393.816,49.28,-21.91,104.86
988.688,72.224,470.92,49.07,-28.35,106.68
1031.144,43.92,470.432,47.67,-34.72,101.78
1106.784,83.936,437.248,46.27,-41.37,93.31
1189.744,118.096,496.784,45.36,-48.72,83.58
1123.376,89.792,445.056,44.59,-56.42,71.33
1161.928,99.064,397.72,42.98,-63.21,56.7
1233.664,47.824,353.8,40.81,-69.65,42.21
1277.096,130.296,382.592,38.01,-75.74,29.75
1325.896,-77.592,423.584,35.42,-81.76,18.27
1200.968,-231.312,366.488,30.8,-86.94,4.83
1135.576,-240.584,352.336,24.36,-89.67,-7.14
952.576,-143.96,301.096,17.71,-89.81,-13.93
741.272,-45.872,254.736,12.32,-85.82,-13.09
634.888,29.768,209.84,8.96,-77.35,-4.27
715.408,-14.64,258.152,7.56,-65.73,10.36
882.304,-64.904,316.712,6.79,-54.11,24.64
1023.824,-73.2,367.952,5.88,-44.66,33.25
1160.464,-68.32,394.792,4.76,-38.08,34.44
1125.816,-23.424,381.616,3.85,-34.23,31.01
1081.896,-75.64,378.688,3.36,-31.43,27.65
1035.048,-122.0,407.48,2.73,-29.4,26.88
880.352,-92.232,479.216,1.89,-28.0,30.1
803.248,-195.688,517.768,1.54,-26.6,36.75
817.4,-271.328,488.488,0.56,-26.11,46.83
725.168,-233.752,517.768,-0.77,-26.81,60.55
711.016,-300.12,629.52,-1.68,-28.0,76.72
746.152,-349.896,754.448,-2.94,-30.03,94.15
721.264,-336.72,834.48,-4.34,-32.62,112.98
723.216,-302.56,876.936,-5.39,-35.0,133.35
769.576,-215.208,899.384,-5.95,-37.1,155.19
769.088,-188.368,979.416,-5.18,-38.71,175.98
804.224,-176.168,1035.536,-3.29,-39.83,189.49
773.968,-120.048,1007.72,-0.14,-40.32,191.24
744.2,-33.672,976.976,4.76,-39.06,181.37
794.952,-18.056,1031.632,11.69,-35.49,161.98
936.96,-22.448,1104.832,20.65,-30.31,137.76
1002.352,17.568,1199.504,31.57,-24.15,113.96
1046.76,-21.472,1278.56,44.52,-16.66,91.63
1153.632,-63.44,1300.52,58.59,-7.49,70.21
1210.24,-34.16,1279.048,73.71,2.52,50.75
1199.016,-48.312,1263.432,89.74,13.02,30.03
1157.048,-102.968,1259.04,105.63,24.29,6.02
1171.2,-172.752,1260.016,120.61,36.4,-16.31
1200.968,-231.8,1222.928,133.91,48.79,-32.13
1199.504,-306.952,1219.024,145.04,60.69,-41.86
1174.128,-376.736,1241.96,153.93,72.38,-48.51
1132.16,-437.248,1261.48,161.21,84.35,-53.48
1112.152,-451.4,1279.048,167.23,96.6,-58.52
1076.04,-435.296,1281.488,172.41,108.78,-66.15
1065.792,-435.784,1270.264,176.82,120.61,-77.63
1070.184,-417.24,1257.576,180.18,131.53,-90.02
1070.672,-390.888,1235.616,182.7,141.4,-98.42
1036.512,-369.416,1191.208,184.66,150.22,-101.08
1026.752,-319.64,1144.848,186.41,158.2,-100.1
1009.672,-268.4,1058.96,188.44,164.92,-98.91
965.752,-208.864,1044.808,190.82,170.52,-98.98
1000.4,-177.144,1047.736,193.9,174.93,-97.93
1020.896,-169.336,983.32,197.05,177.52,-92.68
1032.12,-194.224,953.064,200.13,178.43,-82.39
1019.432,-202.032,874.984,203.91,177.66,-68.67
971.12,-180.072,776.408,208.46,175.63,-54.95
976.0,-72.712,691.984,213.5,172.69,-46.97
897.432,30.256,649.528,219.1,169.12,-50.75
842.776,32.208,670.024,223.65,166.11,-70.21
851.56,-17.08,694.424,225.89,163.8,-93.52
839.848,-114.68,747.616,225.75,161.42,-108.22
914.024,-217.648,789.584,222.95,158.55,-108.01
951.112,-236.192,813.984,218.33,154.14,-91.21
943.792,-211.304,810.568,213.08,147.63,-63.21
864.248,-172.264,776.408,207.9,139.37,-35.0
831.064,-105.408,751.52,202.79,129.78,-15.75
831.064,-45.872,688.568,197.82,119.0,-8.68
806.664,37.088,647.576,192.85,107.73,-10.71
805.2,141.52,604.144,187.95,96.6,-16.38
766.16,209.352,553.88,183.33,85.61,-24.29
666.608,235.704,482.632,178.57,75.18,-34.23
516.792,205.936,471.408,173.11,66.36,-43.89
505.568,183.0,448.472,166.6,59.29,-47.39
477.752,142.496,424.56,159.18,52.64,-42.35
422.12,131.76,383.568,150.92,46.62,-32.34
421.632,179.096,354.288,142.17,41.3,-20.44
454.328,293.288,325.008,133.84,36.33,-8.19
408.456,373.32,294.752,126.56,31.43,1.61
408.456,474.336,249.856,119.84,27.3,7.28
430.904,547.536,225.944,113.82,23.38,10.85
473.848,616.344,181.048,108.15,19.04,13.09
461.16,698.328,123.464,102.9,14.21,14.28
444.568,779.336,39.04,98.21,9.73,14.35
399.184,826.672,-34.16,94.01,5.74,12.53
385.52,849.12,-91.744,89.67,2.38,8.26
447.496,824.232,-140.544,84.77,-0.91,2.8
438.712,795.928,-185.928,78.82,-4.9,-1.96
492.88,769.576,-246.928,71.68,-9.1,-3.08
528.504,775.432,-348.92,63.98,-13.93,1.4
517.28,757.376,-483.12,55.79,-19.25,8.61
531.432,720.288,-615.368,46.9,-24.78,14.07
574.864,661.728,-746.64,37.24,-30.87,16.1
691.496,602.192,-858.88,26.81,-38.01,16.94
915.488,545.096,-997.96,15.82,-46.9,21.0
1215.608,403.088,-1190.72,4.34,-58.52,27.86
1539.64,315.248,-1414.224,-8.33,-73.57,33.67
1803.16,268.4,-1525.0,-21.7,-91.98,36.68
2017.88,176.656,-1564.04,-35.7,-113.26,34.44
2292.624,65.392,-1613.328,-50.96,-136.99,28.21
2636.664,27.328,-1632.36,-67.55,-163.31,25.41
2970.944,0.976,-1733.864,-85.12,-192.22,31.99
3285.704,-130.296,-1974.448,-104.44,-222.81,43.26
3605.832,-421.144,-2530.28,-127.26,-254.17,47.18
4030.392,-702.232,-3273.016,-155.54,-286.79,30.31
4463.248,-879.376,-3588.752,-188.72,-323.68,-23.87
5534.896,-1362.984,-3593.632,-224.91,-370.72,-112.98
6711.952,-2473.184,-3311.08,-268.66,-437.15,-187.32
7688.44,-3971.344,-2907.992,-329.49,-524.02,-194.81
8227.68,-5904.8,-2090.592,-417.83,-626.92,-140.07
8757.648,-7692.344,-522.648,-541.52,-738.92,-65.87
9026.048,-9111.937,1584.048,-699.58,-852.88,2.73
8526.824,-10308.024,3630.232,-880.81,-957.46,60.13
7584.008,-10502.248,5997.032,-1065.4,-1037.4,124.32
1341.024,-1985.184,1455.216,-720.72,-981.82,507.43
2867.976,-6340.584,3083.184,-572.39,-911.54,534.94
7119.432,-9259.313,2737.192,-889.49,-957.32,93.8
8444.84,-6984.256,4209.976,-996.03,-1010.87,-43.05
8624.424,-4790.208,3124.176,-1018.29,-1030.12,123.41
6569.456,-2422.432,2092.544,-995.96,-999.67,306.32
4187.528,-558.272,435.784,-933.31,-928.2,330.4
2624.952,521.184,-1263.92,-822.57,-851.48,203.84
2322.392,1060.912,-2270.664,-668.43,-794.57,12.46
2420.968,758.352,-2451.712,-487.97,-763.21,-166.25
2286.28,94.672,-1968.104,-304.85,-743.05,-288.54
1980.792,-974.048,-1352.248,-139.79,-717.57,-341.25
1890.512,-1500.6,-796.904,-7.0,-680.19,-334.6
1600.64,-1700.68,-543.632,91.77,-633.92,-274.12
1294.176,-1537.2,-307.928,157.85,-581.42,-185.43
1075.552,-1210.728,-324.52,197.82,-526.4,-91.21
870.592,-1149.728,-439.2,217.14,-472.71,-22.61
837.896,-945.256,-563.64,221.41,-421.61,4.13
868.64,-889.136,-601.704,217.07,-374.71,-4.27
867.664,-846.68,-448.96,207.48,-332.08,-30.24
770.064,-748.104,-372.832,194.6,-292.25,-56.0
638.304,-651.968,-397.232,180.18,-253.19,-74.27
630.496,-636.84,-459.208,164.22,-213.85,-80.43
804.224,-537.288,-428.952,145.95,-175.98,-67.2
965.264,-402.6,-441.152,126.7,-141.89,-31.43
1016.992,-229.36,-504.592,107.73,-111.79,17.92
1002.352,49.288,-589.992,91.21,-84.35,70.35
915.488,207.4,-644.648,78.54,-58.24,115.43
813.984,325.984,-634.4,69.58,-32.62,144.2
788.12,386.496,-622.688,63.98,-7.56,154.98
826.184,544.12,-611.464,61.81,16.1,152.04
842.288,647.088,-688.568,63.56,38.08,141.47
734.928,698.328,-760.792,68.46,59.01,124.32
552.416,668.56,-763.232,75.46,80.36,101.08
448.96,585.6,-740.784,83.09,102.69,74.76
400.16,467.992,-709.552,90.02,125.09,50.33
385.52,331.352,-669.536,95.48,146.93,31.36
409.432,279.624,-666.12,99.54,167.65,18.97
417.24,284.992,-666.608,103.11,186.83,14.07
419.68,279.136,-664.168,106.61,204.68,15.96
431.88,256.2,-659.776,109.83,220.92,21.77
459.696,203.984,-624.152,112.63,235.2,27.72
570.96,-18.056,-631.96,113.96,246.96,30.1
649.04,-80.52,-582.184,112.7,255.71,27.93
726.144,-1.952,-525.088,110.67,262.22,26.04
810.08,24.4,-530.944,109.41,266.91,28.07
823.256,-28.304,-579.256,108.85,270.27,32.06
822.28,-95.648,-564.128,108.57,272.86,35.21
829.112,-138.104,-580.72,108.43,274.89,35.91
910.608,-234.24,-676.368,108.64,276.15,33.6
982.832,-156.16,-797.392,109.27,276.36,27.93
1057.008,-55.632,-854.488,112.07,275.94,19.95
1097.024,-72.224,-942.328,117.04,275.03,10.08
1082.872,-122.976,-1015.04,122.71,274.12,-2.45
1077.992,-160.552,-1081.896,128.73,273.77,-18.97
1162.416,-185.928,-1173.64,134.96,273.77,-36.96
1292.712,-234.24,-1259.04,141.19,273.49,-50.26
1404.952,-218.624,-1309.304,147.77,272.51,-55.44
1500.6,-235.704,-1339.56,154.98,270.48,-52.36
1568.92,-293.288,-1380.064,162.75,267.54,-42.84
1622.6,-321.104,-1437.648,170.45,263.69,-31.57
1615.28,-300.608,-1422.032,178.01,258.93,-23.94
1584.536,-308.904,-1383.48,185.43,253.96,-22.82
1529.88,-312.32,-1344.928,192.01,248.92,-29.05
1464.976,-326.472,-1279.536,197.26,244.37,-42.0
1423.984,-349.896,-1215.608,200.76,240.45,-59.43
1414.224,-405.04,-1167.296,202.58,237.09,-77.35
1433.256,-451.888,-1118.984,202.02,233.8,-91.42
1426.912,-460.184,-1074.576,199.99,230.23,-99.54
1401.048,-448.96,-1012.112,197.05,226.31,-100.17
1342.0,-440.176,-932.568,193.76,221.97,-94.08
1274.656,-430.904,-827.648,190.19,217.21,-83.44
1210.728,-420.168,-747.616,186.62,211.96,-70.14
1169.248,-432.856,-705.648,183.12,206.08,-56.07
1132.648,-452.864,-677.832,179.41,199.5,-42.42
1079.456,-434.32,-615.856,175.42,192.29,-28.77
1025.776,-398.696,-534.848,171.85,184.66,-15.26
940.376,-344.04,-467.992,168.63,176.75,-2.73
865.224,-295.24,-392.352,166.04,168.91,8.33
811.544,-278.648,-334.28,163.94,161.14,17.22
784.216,-289.872,-201.544,161.84,153.51,23.03
747.128,-259.616,-219.112,159.46,145.88,24.64
824.232,-258.152,-380.64,157.01,138.18,21.28
850.096,-222.04,-418.704,154.35,129.92,13.93
804.712,-146.888,-392.352,152.04,121.73,4.69
786.168,-156.16,-298.168,150.08,114.03,-4.97
713.944,-153.232,-188.368,147.84,106.82,-14.21
613.904,-147.376,-126.88,145.46,100.8,-22.19
590.968,-115.168,-93.696,143.08,96.04,-28.63
618.784,-20.496,-105.896,141.12,91.77,-34.3
673.44,-59.536,-62.464,139.86,87.43,-41.51
685.152,-91.744,-98.088,138.18,83.02,-50.82
749.568,-76.128,-109.312,136.01,78.82,-61.04
747.128,-74.176,-40.504,133.28,74.69,-73.78
673.928,-94.672,11.224,128.73,71.4,-89.95
526.552,25.376,112.24,122.22,69.79,-109.13
514.84,13.664,167.384,114.59,70.35,-132.65
613.904,25.376,228.872,105.84,71.82,-154.0
711.504,164.944,225.944,97.86,73.08,-168.14
784.216,331.84,163.48,91.91,73.78,-174.3
848.144,614.392,94.184,87.08,73.99,-172.83
1281.976,332.816,-12.2,81.48,72.94,-158.97
855.952,244.976,-66.368,73.01,70.77,-136.99
946.72,188.856,60.024,64.4,70.21,-108.57
1086.776,-53.68,224.48,57.89,67.76,-75.46
1557.696,-449.936,336.72,50.54,61.6,-42.63
1326.384,-94.672,490.44,41.23,50.33,-9.66
1342.0,206.424,447.984,34.72,39.41,23.73
1374.208,229.848,519.232,30.73,27.79,50.89
1399.096,230.336,536.8,28.0,15.26,67.9
1462.536,119.072,556.808,25.27,1.96,73.71
1463.512,91.744,565.104,21.28,-12.39,69.79
1415.688,77.592,605.608,16.38,-26.81,60.13
1332.24,95.648,623.664,10.92,-40.46,49.91
1325.408,48.8,661.728,5.67,-52.78,42.77
1166.808,28.792,702.72,0.63,-63.63,40.74
1029.192,-9.272,660.752,-4.06,-71.05,44.87
921.832,-64.416,647.576,-8.68,-74.9,53.62
718.336,-55.144,618.296,-13.23,-75.46,62.93
610.488,-55.632,573.888,-17.08,-72.45,69.23
595.36,-25.376,527.04,-19.6,-67.48,71.33
596.824,66.856,574.376,-20.58,-61.81,69.72
671.976,99.064,590.48,-19.46,-56.14,64.05
561.2,112.728,516.792,-17.22,-50.75,52.36
595.36,169.336,480.192,-14.21,-44.38,36.61
665.144,104.92,375.76,-10.43,-38.43,20.3
756.4,22.936,476.776,-7.14,-33.39,8.12
607.072,-14.152,498.736,-4.62,-29.12,1.12
662.216,-88.816,468.968,-3.01,-24.08,-0.21
753.96,-58.072,428.952,-2.31,-19.81,5.04
762.744,-49.288,442.128,-1.82,-16.8,15.33
728.096,-41.968,483.608,-1.4,-14.21,26.53
721.264,-75.64,553.392,-0.91,-11.97,35.49
777.872,-45.384,559.248,-0.35,-10.5,40.81
823.744,-43.92,538.264,0.49,-10.22,43.47
842.776,-47.336,531.432,1.47,-10.64,44.52
863.76,-41.968,536.312,2.31,-11.41,44.1
870.592,-58.072,544.12,2.94,-12.53,42.77
934.032,-66.368,536.312,3.15,-13.93,41.65
988.688,-17.08,523.136,3.15,-15.96,42.91
988.2,-11.224,515.816,3.78,-18.2,47.74
940.376,20.496,559.736,4.76,-20.3,54.04
965.752,-100.528,595.36,6.16,-22.05,58.38
1075.064,-76.616,585.6,6.23,-24.36,61.81
1095.56,-76.616,617.32,5.95,-27.58,67.9
1061.4,-84.424,551.928,5.32,-30.52,73.22
1017.968,-66.856,517.768,4.41,-32.34,75.95
983.32,-46.36,494.832,3.85,-33.04,77.07
993.08,-64.416,461.648,3.57,-32.9,76.65
995.52,-54.168,422.12,3.5,-32.48,74.97
992.592,-35.624,367.464,3.85,-31.92,73.08
963.8,-21.96,340.136,4.76,-31.43,69.86
921.832,-39.528,311.832,6.16,-30.73,64.33
891.088,-61.0,290.36,7.98,-29.82,57.4
862.784,-94.672,291.336,9.73,-28.56,51.8
846.68,-121.024,297.68,11.2,-26.95,50.4
825.696,-152.744,300.12,12.53,-25.2,54.25
807.64,-154.208,327.936,13.58,-23.45,61.95
787.632,-158.6,337.696,14.77,-21.91,69.58
764.208,-160.552,352.336,16.38,-20.93,73.85
757.864,-166.896,383.568,18.34,-20.65,74.9
765.672,-171.288,409.432,20.58,-21.07,75.88
757.864,-191.296,427.976,23.03,-22.19,77.63
777.384,-220.088,447.496,25.48,-24.01,80.43
795.928,-239.12,496.784,27.93,-26.81,85.89
819.84,-264.008,531.432,30.17,-30.66,94.5
807.152,-266.448,578.768,32.48,-35.28,104.16
809.104,-278.16,610.488,35.0,-40.25,112.21
831.064,-275.232,636.352,37.94,-45.43,117.88
807.64,-262.056,648.552,41.65,-50.26,121.66
808.128,-254.736,645.136,45.99,-54.32,122.64
846.68,-250.344,654.896,51.03,-57.54,121.17
875.472,-270.84,694.424,56.77,-60.48,118.3
878.888,-302.072,748.592,63.21,-62.72,114.52
911.584,-340.136,793.976,70.14,-64.05,109.83
986.736,-404.064,819.84,77.56,-64.82,104.02
1046.76,-453.352,871.568,85.33,-65.17,98.0
1097.512,-542.168,894.016,93.52,-64.54,91.56
1138.016,-584.624,946.232,101.5,-62.37,84.35
1130.696,-643.672,971.12,109.41,-58.45,77.21
1128.744,-680.76,1010.16,116.97,-52.57,67.9
1123.864,-690.52,998.936,124.39,-44.94,55.86
1081.408,-683.2,969.656,131.67,-35.77,40.04
1035.536,-649.528,946.72,138.95,-24.5,20.79
995.032,-600.728,909.632,146.51,-11.62,-0.28
967.216,-546.56,894.504,154.21,2.73,-20.72
961.848,-517.28,917.928,161.84,17.78,-38.5
983.808,-492.88,964.776,169.47,32.83,-53.97
1049.2,-457.256,997.472,177.45,47.39,-67.06
1097.512,-419.68,1001.376,185.92,61.11,-77.49
1084.336,-383.08,1002.84,195.09,74.13,-89.32
1057.008,-385.52,996.984,204.4,87.15,-104.16
1029.192,-388.936,1059.936,213.08,100.24,-118.65
1038.952,-427.0,1092.632,221.2,112.91,-126.07
1125.816,-489.952,1156.56,228.27,123.69,-126.14
1252.696,-505.08,1151.68,234.22,131.6,-116.9
1251.232,-556.32,1096.048,239.26,136.22,-100.17
1284.904,-526.064,1127.28,244.02,138.25,-80.22
1364.936,-495.808,1120.448,249.55,137.34,-56.63
1362.008,-404.552,1103.368,255.29,133.7,-41.16
1342.488,-339.16,1048.712,260.75,129.08,-45.5
1314.672,-294.264,1016.504,265.02,124.46,-66.64
1246.84,-302.56,968.68,267.82,120.61,-90.02
1158.512,-340.624,904.752,268.8,118.09,-106.75
1071.648,-407.968,792.512,267.96,116.97,-114.31
946.72,-489.952,723.704,265.3,117.25,-113.26
978.44,-487.024,676.856,260.82,118.16,-98.56
926.224,-503.616,675.88,255.29,117.25,-72.03
847.168,-508.984,666.12,248.57,114.24,-50.05
778.36,-465.552,667.096,240.59,109.69,-40.88
705.648,-356.24,627.568,232.33,104.72,-42.14
668.56,-252.296,574.376,224.84,100.03,-49.7
612.928,-210.328,558.76,218.12,95.9,-58.59
656.848,-224.48,572.912,211.19,91.98,-60.2
768.112,-240.584,606.584,203.63,86.66,-44.87
758.84,-202.032,639.28,195.65,79.17,-16.94
769.088,-93.696,695.4,187.95,70.28,8.12
713.456,23.912,747.128,181.23,60.62,16.94
670.512,173.24,773.48,175.77,51.8,5.53
678.808,250.832,802.272,171.92,44.52,-15.89
742.736,278.648,817.888,168.98,38.71,-32.9
775.92,316.224,765.184,166.32,33.67,-36.47
713.456,402.112,621.224,164.29,29.4,-29.68
678.32,498.248,439.688,162.96,25.97,-21.84
686.128,561.688,294.264,162.05,22.75,-18.62
667.096,568.52,173.728,160.72,18.9,-22.33
660.752,538.264,94.184,157.85,14.56,-33.11
697.84,495.32,-4.392,152.95,9.59,-44.87
854.488,484.096,-87.352,145.6,3.29,-49.42
1005.768,519.72,-178.12,136.43,-5.81,-41.58
1110.2,532.408,-279.136,126.07,-17.92,-28.07
1260.016,579.256,-386.496,114.59,-32.55,-16.66
1464.488,512.4,-536.312,101.99,-49.91,-10.29
1817.8,479.704,-733.464,87.57,-70.07,-8.33
2129.144,363.072,-1025.288,70.84,-93.17,-9.52
2234.552,302.56,-1321.992,51.17,-117.67,-16.45
2151.592,-9.76,-1799.256,27.16,-141.33,-37.17
1960.296,-317.688,-2391.688,-4.34,-162.33,-76.16
2032.52,-978.928,-3007.056,-45.08,-181.58,-118.65
2404.864,-1809.016,-3434.056,-99.4,-203.77,-145.11
2513.2,-2761.104,-4089.44,-170.31,-234.01,-147.91
3106.12,-3376.472,-4819.488,-258.93,-272.44,-123.13
3844.952,-3983.056,-4971.256,-363.09,-324.24,-76.44
4957.104,-4701.88,-4250.968,-483.28,-393.61,-35.77
6077.064,-5576.376,-2826.496,-618.87,-485.03,-19.67
6894.464,-6512.848,-1032.608,-766.92,-597.45,-27.72
7278.032,-7275.592,832.04,-921.34,-722.05,-33.95
7000.36,-7952.936,2547.36,-1077.02,-842.1,-10.5
5779.872,-8180.344,3759.552,-1229.76,-934.15,45.22
3275.456,4252.92,-156.16,-881.16,-1026.41,-313.18
3663.904,-9495.992,-1694.336,-500.78,-967.89,-479.57
4795.088,-11675.888,769.576,-556.29,-1068.27,51.94
5287.968,-11704.192,3114.416,-804.44,-1039.22,448.35
4453.0,-10464.185,3929.376,-1054.9,-937.93,615.3
3590.704,-7480.064,3356.952,-1223.74,-777.21,631.12
4154.832,-4233.4,2400.96,-1287.16,-597.8,603.82
4064.064,-2325.32,1223.416,-1252.02,-439.18,563.57
3363.296,-1342.0,84.424,-1160.74,-311.92,488.6
2997.296,-830.576,-1136.064,-1042.3,-215.53,396.13
2574.688,-909.632,-2077.416,-917.21,-145.25,322.21
1704.096,-1300.032,-2464.888,-799.12,-88.9,279.09
620.248,-2116.944,-3043.656,-696.36,-34.3,251.86
-137.616,-2850.896,-2485.384,-614.81,22.05,217.35
-336.232,-3337.92,-2000.8,-551.6,74.76,173.04
137.128,-3647.312,-1465.464,-502.67,117.6,129.43
874.496,-3459.432,-1016.504,-461.51,146.37,120.89
1037.0,-3178.344,-605.608,-421.05,165.2,165.62
1008.696,-2708.888,-351.36,-378.07,181.72,239.82
989.664,-2428.288,-56.608,-332.5,196.7,307.09
1014.552,-2157.448,137.616,-287.7,206.22,336.77
952.576,-1978.352,272.304,-246.47,207.34,321.23
731.512,-1894.904,570.472,-210.98,200.13,266.21
507.52,-1897.344,603.168,-182.14,186.9,188.23
361.12,-1982.256,512.4,-159.6,169.96,112.84
456.28,-2007.632,416.264,-142.1,150.43,66.01
693.936,-1924.184,213.744,-126.49,127.75,58.73
890.112,-1750.944,35.136,-110.25,101.15,78.26
1048.224,-1615.28,-151.28,-93.1,71.4,104.79
1094.584,-1381.528,-258.64,-75.53,39.13,124.04
1164.368,-1186.328,-284.504,-57.61,5.18,131.25
1221.952,-1046.272,-187.392,-39.9,-30.52,125.72
1362.008,-971.608,-101.504,-23.03,-68.11,109.2
1463.024,-889.624,-29.768,-6.93,-107.03,88.06
1543.056,-817.4,-42.944,8.89,-145.88,67.34
1611.376,-707.6,-38.064,25.34,-183.26,49.98
1703.608,-595.36,-37.576,42.91,-218.54,38.99
1762.168,-499.224,-56.12,61.74,-251.23,34.02
1857.816,-331.352,-14.152,81.76,-281.19,31.64
1884.656,-168.848,-22.936,103.32,-308.63,27.79
1849.032,12.2,-135.664,126.98,-332.78,16.59
1770.952,153.232,-298.656,153.37,-352.38,-5.53
1650.416,191.296,-380.64,182.84,-366.59,-39.62
1557.208,125.416,-501.176,214.97,-374.43,-81.27
1493.28,111.264,-588.04,248.57,-376.18,-122.01
1501.088,234.728,-576.816,283.57,-372.54,-153.37
1471.808,274.256,-607.56,319.83,-365.05,-171.43
1440.576,259.616,-668.56,355.25,-354.34,-182.28
1423.984,167.872,-618.784,388.22,-341.18,-191.31
1370.304,93.208,-553.392,417.83,-326.27,-201.95
1315.648,91.256,-436.272,444.22,-309.47,-214.55
1229.76,20.496,-325.008,467.6,-290.85,-228.2
1173.152,-152.744,-178.12,487.27,-269.99,-247.31
1192.184,-353.312,-81.008,502.32,-246.89,-271.04
1239.032,-514.352,-67.832,512.61,-221.9,-293.09
1203.896,-646.112,-51.24,518.42,-195.44,-311.85
1148.264,-717.848,-30.744,520.17,-167.16,-329.21
1094.584,-716.384,-28.792,518.63,-137.06,-342.72
1028.216,-751.032,-6.832,514.57,-105.63,-353.22
983.32,-835.944,32.696,507.64,-73.15,-362.74
995.032,-868.64,15.616,497.28,-40.04,-365.89
1057.496,-847.168,10.248,483.91,-7.98,-355.18
1040.904,-854.488,-69.296,468.3,21.42,-338.59
1020.408,-873.032,-125.416,450.8,48.58,-327.04
997.472,-813.984,-171.776,431.41,73.71,-319.97
939.4,-821.304,-130.296,410.76,96.95,-311.15
993.08,-801.296,-163.48,388.22,117.95,-295.33
1054.08,-767.624,-204.472,364.56,135.17,-269.99
1028.704,-746.64,-167.872,340.2,148.05,-241.5
954.04,-707.6,-191.784,315.7,157.43,-217.49
969.168,-630.008,-200.08,291.48,164.43,-200.13
953.064,-557.784,-241.56,267.89,168.77,-187.53
917.44,-540.216,-288.896,244.65,171.29,-175.91
976.0,-451.888,-220.576,221.55,172.2,-158.06
1054.08,-370.88,-232.776,199.71,170.17,-131.04
1048.712,-287.92,-251.32,179.41,164.92,-100.8
1023.336,-169.824,-232.288,161.21,157.57,-75.53
984.784,-38.064,-247.416,145.25,148.82,-60.41
878.4,77.592,-248.88,131.81,139.58,-57.33
841.8,156.16,-254.248,120.05,130.9,-63.98
863.76,256.688,-267.424,109.76,122.5,-74.27
873.032,331.352,-267.424,100.8,113.89,-84.07
836.432,418.216,-234.24,93.31,105.28,-92.75
807.64,511.424,-214.72,87.5,97.16,-101.57
744.688,560.224,-223.504,83.3,89.67,-112.91
688.568,584.624,-187.392,80.22,83.09,-128.31
551.44,817.4,-119.072,76.86,77.42,-152.39
629.032,729.56,-93.208,72.8,72.1,-193.97
620.248,854.0,-42.456,67.48,67.2,-232.96
694.912,860.344,-69.784,61.74,63.35,-267.19
703.696,792.024,-62.952,55.86,60.41,-287.07
719.8,838.384,-35.136,50.61,58.38,-284.9
670.512,756.4,6.344,46.48,56.7,-264.32
626.592,364.536,114.192,41.93,56.07,-231.28
761.768,759.816,164.456,35.42,56.28,-199.71
574.864,779.336,246.928,33.6,56.56,-170.38
682.224,911.584,161.528,33.95,59.01,-134.96
374.784,1060.912,18.544,37.8,59.29,-104.86
373.808,848.632,-159.088,42.07,56.98,-77.56
540.216,936.472,-291.824,42.91,50.82,-54.04
254.736,503.128,-49.288,40.74,43.75,-43.54
196.664,274.744,193.736,33.6,40.95,-38.36
381.128,406.504,115.168,26.74,39.48,-32.48
433.344,519.72,-7.808,23.38,37.31,-23.8
327.448,710.528,35.136,22.54,35.35,-11.27
175.192,849.608,174.216,24.08,34.86,1.96
546.56,142.496,212.28,26.32,35.84,13.65
779.336,-20.496,174.216,20.37,31.5,23.31
1117.032,-4.88,169.824,10.5,21.7,35.7
725.168,749.568,238.632,1.75,7.98,49.77
1006.744,405.528,316.712,-0.77,-4.55,58.59
637.816,396.744,273.28,-3.57,-17.78,59.64
506.056,430.416,194.224,-6.44,-27.09,56.84
496.784,458.72,171.776,-9.31,-34.02,51.03
479.216,521.672,242.536,-11.83,-39.69,43.05
512.4,581.208,264.008,-13.86,-43.89,34.86
624.64,603.656,262.056,-15.68,-46.97,28.63
667.584,623.176,284.992,-17.78,-49.49,24.99
606.584,649.528,331.84,-20.37,-50.96,21.84
609.024,589.504,394.792,-23.45,-49.98,19.04
668.072,479.216,503.128,-27.37,-46.48,19.25
756.4,476.288,636.84,-32.06,-40.39,25.9
895.48,580.232,720.776,-36.19,-32.2,39.69
933.056,761.768,792.512,-39.27,-23.38,55.44
1163.88,942.328,814.472,-40.53,-14.98,65.59
1225.856,721.752,958.432,-40.95,-10.22,60.83
1252.696,818.376,1031.144,-42.42,-8.68,41.72
1290.76,762.744,1080.92,-42.07,-9.66,18.9
1188.28,818.864,1038.952,-40.25,-12.46,-1.54
1089.704,841.8,971.608,-36.33,-16.45,-16.45
1081.408,886.208,886.696,-30.87,-22.19,-28.07
1031.144,833.504,851.072,-25.06,-29.54,-38.43
961.36,695.888,862.784,-20.16,-36.75,-44.94
933.544,609.024,820.328,-16.24,-42.63,-44.03
882.304,583.648,787.632,-12.88,-47.25,-37.31
807.152,572.424,763.72,-9.45,-50.82,-28.42
744.688,534.36,757.864,-6.09,-53.55,-19.88
688.08,457.744,733.464,-3.22,-55.72,-11.41
692.96,352.336,690.52,-0.98,-57.61,-2.45
712.48,256.2,721.264,0.07,-59.85,6.44
728.096,212.28,733.952,0.07,-62.86,14.35
702.232,195.2,705.16,-0.42,-66.43,22.12
622.688,202.52,665.632,-1.19,-70.21,30.66
470.432,235.216,622.688,-1.75,-72.94,41.79
311.344,234.728,589.504,-1.47,-73.29,56.77
91.256,229.848,558.76,-0.35,-70.21,74.69
61.488,170.312,504.104,1.54,-63.35,91.98
121.512,201.056,551.44,3.64,-54.88,105.56
270.84,254.736,571.448,6.44,-46.83,114.38
447.984,325.984,556.808,9.87,-40.81,120.26
398.208,380.152,580.72,14.28,-36.26,127.33
428.464,297.192,701.744,19.46,-30.87,137.06
511.912,156.16,738.832,23.87,-25.13,146.93
476.288,156.16,750.544,26.74,-19.25,157.64
502.64,180.56,794.952,28.91,-12.74,172.27
605.608,181.048,824.232,31.29,-6.16,191.73
748.592,233.752,864.736,34.37,-0.56,214.48
809.104,366.976,903.288,38.71,4.27,238.0
860.344,403.576,960.872,44.87,9.17,258.02
860.832,459.696,1059.936,52.08,14.49,270.55
994.056,470.432,1132.16,60.41,20.16,274.19
1151.192,524.6,1177.544,69.79,25.27,269.85
1240.008,555.344,1173.64,81.06,29.68,256.9
1252.696,522.16,1229.76,94.08,34.51,231.07
1312.72,481.656,1223.904,107.94,39.83,191.94
1380.064,446.52,1223.416,122.29,45.36,147.63
1303.448,344.04,1231.224,136.29,51.24,105.21
1309.304,301.584,1213.168,148.75,58.66,68.11
1251.72,208.376,1176.08,159.25,66.99,41.93
1210.728,142.984,1138.504,167.16,76.72,24.99
1158.512,82.96,1130.696,172.97,87.22,13.44
1125.328,-14.152,1167.296,176.89,98.49,1.96
1135.576,-47.824,1174.128,178.99,109.97,-12.81
1113.616,-116.144,1246.84,179.41,121.31,-30.52
1134.112,-151.768,1230.248,177.87,132.65,-48.09
1202.92,-190.32,1268.312,174.65,143.57,-55.79
1276.12,-248.88,1283.44,170.73,152.81,-48.02
1322.968,-335.256,1321.992,166.67,159.6,-27.16
1350.784,-425.048,1343.464,163.03,163.59,4.34
1377.136,-417.728,1303.936,160.37,164.78,47.74
1274.168,-407.968,1226.344,160.65,163.1,93.52
1063.352,-400.16,1162.416,164.43,159.53,119.84
958.432,-313.296,1094.584,171.15,154.56,115.29
930.128,-214.72,1024.312,179.27,148.4,86.8
951.112,-150.792,951.112,187.88,142.31,49.14
1029.68,-58.56,819.352,196.84,136.85,18.27
1107.272,51.24,680.76,206.57,132.16,2.24
1131.184,169.336,544.608,217.35,127.68,-2.45
1074.088,189.832,572.912,228.48,123.2,-7.98
1116.544,194.224,534.848,238.21,118.44,-21.28
1120.448,152.744,549.0,245.56,112.91,-38.01
1087.752,135.176,508.984,250.11,107.03,-54.04
977.464,92.72,445.056,252.07,101.64,-70.91
927.688,49.776,387.472,251.44,97.79,-86.87
848.632,-36.6,325.496,248.01,94.85,-95.97
779.824,-116.632,314.76,241.78,92.54,-94.08
711.504,-197.152,273.768,233.1,89.88,-80.85
701.256,-199.592,211.792,222.39,86.31,-61.67
657.336,-119.072,74.176,211.19,81.13,-44.1
530.456,-81.008,60.512,199.92,75.11,-38.71
547.536,-13.664,22.448,188.3,68.88,-45.99
574.864,12.688,11.712,176.54,61.81,-58.17
562.176,36.112,-32.696,164.64,54.32,-68.81
604.144,89.792,-64.416,153.23,46.9,-73.22
607.072,145.424,-162.016,142.94,39.41,-69.23
579.256,187.392,-231.312,133.7,32.2,-59.57
536.8,238.144,-303.048,125.02,25.34,-47.46
494.344,228.384,-360.144,116.55,18.83,-35.98
564.616,198.128,-429.928,107.24,12.25,-26.04
654.408,200.08,-514.84,97.02,4.62,-15.75
674.904,252.296,-621.224,86.59,-3.99,-6.09
655.384,303.536,-752.496,76.72,-12.74,-1.26
676.368,291.336,-903.288,67.48,-21.0,-3.43
803.248,246.928,-1129.72,58.03,-29.54,-10.15
1051.152,89.792,-1341.024,47.67,-39.55,-16.17
1302.96,-133.224,-1608.936,34.65,-52.43,-17.71
1563.552,-387.96,-1734.352,17.57,-68.25,-8.19
1927.112,-501.664,-1899.296,-4.27,-87.29,20.02
2179.896,-454.816,-2184.288,-30.59,-109.97,66.71
2363.384,-416.264,-2732.312,-61.46,-134.89,118.3
2742.072,-295.728,-3502.376,-98.49,-161.91,153.72
3316.448,-261.08,-4114.816,-141.96,-194.18,148.89
3781.024,-663.68,-4570.12,-194.11,-237.3,85.4
5187.928,-1654.32,-4556.456,-260.05,-296.66,-13.37
6969.128,-3198.84,-3680.008,-346.5,-384.51,-86.03
8388.232,-4565.728,-2233.088,-457.38,-502.88,-98.63
8780.096,-6055.104,-528.016,-591.29,-640.57,-70.98
8562.937,-7529.352,1246.352,-746.06,-777.84,-38.43
7583.032,-9137.8,3043.168,-917.14,-897.26,-11.06
6357.176,-10539.336,4556.456,-1096.9,-982.17,31.71
4538.888,-10746.736,5815.008,-1278.83,-1014.79,146.51
1782.176,888.648,-330.376,-674.03,-750.96,678.58
2839.672,-6368.888,-2144.76,-312.13,-377.79,753.76
1649.44,-9795.136,2672.776,-730.73,-421.33,426.02
5486.096,-9605.304,1698.24,-1030.19,-600.25,130.62
6377.672,-7292.672,2028.616,-1189.58,-620.2,57.33
6872.992,-4185.576,1665.056,-1210.23,-616.42,170.59
5968.24,-2546.872,169.336,-1140.72,-596.54,277.69
4649.176,-827.16,-477.264,-1035.44,-574.21,234.57
3728.808,128.344,-1871.968,-892.85,-566.44,94.92
3048.536,167.872,-2746.952,-735.35,-572.88,-49.35
2791.36,-499.712,-3191.52,-576.59,-581.7,-143.01
2283.84,-1405.44,-2843.088,-433.44,-582.68,-175.07
1891.488,-2075.952,-2320.928,-317.1,-569.03,-155.75
1531.344,-2385.344,-1522.072,-232.12,-541.8,-103.88
1265.872,-2356.064,-1189.256,-173.6,-504.56,-44.31
1193.16,-2284.328,-927.2,-135.17,-461.02,-0.56
1258.552,-2045.208,-718.336,-108.92,-416.15,14.49
1474.736,-1689.456,-522.16,-88.9,-374.01,9.38
1726.544,-1194.136,-364.536,-69.93,-336.7,-1.54
1686.528,-891.088,-262.056,-50.33,-303.24,-10.64
1607.96,-835.944,-177.632,-31.57,-269.78,-16.59
1600.152,-867.664,20.496,-16.66,-235.55,-9.45
1626.016,-985.272,196.176,-7.35,-201.25,15.82
1727.52,-951.112,319.64,-3.99,-168.28,52.22
1743.624,-751.032,398.208,-3.78,-137.27,88.34
1709.464,-489.464,347.944,-2.73,-107.8,111.58
1662.616,-379.176,382.104,0.28,-79.45,113.33
1663.104,-297.68,418.704,4.97,-52.85,93.38
1649.44,-267.912,436.76,11.06,-28.42,62.58
1609.424,-231.312,412.848,18.06,-5.81,33.11
1513.776,-194.712,361.608,26.18,15.68,14.63
1391.288,-171.288,296.704,35.28,36.75,8.26
1299.056,-110.776,185.44,45.64,56.98,9.52
1199.992,-33.184,50.752,57.61,76.16,13.09
1127.28,81.008,-73.2,72.03,93.87,12.53
1047.248,195.2,-227.408,89.11,110.04,5.46
970.632,370.88,-355.264,108.99,124.95,-4.55
918.416,480.68,-523.624,131.6,138.88,-14.28
856.928,546.072,-602.68,155.61,151.97,-23.24
813.008,454.816,-685.64,179.34,164.22,-33.32
827.16,264.496,-764.696,200.62,175.42,-43.4
854.976,155.672,-840.336,218.47,185.29,-50.05
890.112,103.456,-870.592,233.8,193.76,-50.33
912.072,55.144,-944.28,247.8,200.69,-44.52
890.112,2.928,-945.744,260.4,206.08,-37.59
901.824,-81.984,-928.176,271.74,210.21,-35.28
918.416,-122.488,-1028.704,281.47,213.15,-39.9
1028.704,-147.376,-1140.944,289.73,215.25,-47.81
1145.336,-158.112,-1142.408,297.08,216.02,-54.18
1101.416,-133.224,-1063.352,303.59,215.67,-58.38
998.936,-165.432,-928.176,309.4,215.53,-63.0
979.904,-209.352,-847.656,313.81,216.09,-71.19
1129.72,-304.024,-795.928,316.75,216.65,-81.2
1295.64,-370.392,-823.256,318.22,216.02,-90.02
1360.544,-401.136,-826.672,318.71,214.2,-96.74
1328.336,-462.624,-786.656,318.78,212.31,-100.8
1263.432,-539.24,-839.848,318.29,211.26,-104.58
1164.856,-509.472,-875.96,317.38,211.61,-109.48
1145.824,-506.056,-902.8,316.75,213.64,-113.26
1240.008,-591.944,-1001.376,316.05,216.16,-115.29
1339.56,-648.552,-1031.144,314.3,218.12,-115.78
1403.0,-660.752,-1027.24,311.99,219.1,-113.68
1410.808,-702.232,-1009.672,309.19,219.31,-110.53
1354.2,-710.528,-989.664,305.62,219.17,-108.71
1294.664,-716.384,-954.04,301.35,219.24,-108.85
1280.024,-712.48,-936.472,296.38,219.45,-109.69
1286.368,-705.648,-927.688,290.92,219.38,-109.55
1301.496,-655.872,-900.36,285.18,218.47,-107.8
1297.592,-615.368,-845.216,279.44,216.65,-102.13
1280.512,-593.896,-758.352,273.77,213.78,-92.33
1275.632,-573.888,-706.624,268.03,209.65,-80.64
1275.632,-569.496,-684.664,262.15,204.33,-70.14
1287.344,-563.152,-671.488,255.71,197.96,-63.28
1287.344,-548.512,-626.592,248.71,190.54,-59.85
1253.184,-529.48,-571.448,241.15,182.56,-59.08
1165.832,-503.128,-531.92,232.96,174.37,-61.11
1097.512,-493.856,-471.408,224.21,166.81,-64.26
1068.232,-506.544,-403.576,214.48,159.6,-65.87
1106.296,-523.624,-379.664,203.84,152.25,-64.96
1104.344,-478.24,-402.112,192.71,144.41,-62.23
1085.8,-423.096,-390.888,181.79,136.43,-58.38
1092.632,-374.296,-349.408,171.43,128.24,-54.25
1061.888,-304.024,-322.08,161.7,119.84,-49.7
1002.84,-244.976,-276.696,152.67,111.51,-45.29
951.112,-212.768,-218.136,144.34,103.46,-42.49
920.368,-174.216,-181.536,136.36,95.83,-41.72
889.136,-128.832,-165.432,128.94,88.41,-42.56
871.568,-85.888,-159.088,122.22,81.34,-44.31
832.528,106.872,-136.64,115.71,74.76,-47.81
848.144,108.336,-153.232,109.48,68.53,-59.5
787.632,446.52,-101.504,101.43,62.09,-78.54
823.256,473.36,-123.952,92.4,55.44,-115.85
795.928,494.832,-111.752,81.34,48.09,-156.24
818.864,419.192,-90.28,71.33,40.46,-183.75
786.656,425.536,-36.6,63.91,33.32,-185.01
774.456,382.104,-10.736,59.5,27.3,-166.53
715.896,380.64,0.488,56.84,22.05,-137.06
642.696,416.264,21.96,55.37,17.5,-104.79
574.376,445.056,23.424,54.74,13.72,-75.95
578.768,478.728,15.128,54.39,10.64,-54.95
700.28,472.384,61.976,54.32,7.63,-42.63
852.048,408.944,108.336,54.32,4.34,-37.31
565.104,461.648,126.88,54.32,0.91,-37.17
731.512,410.408,89.792,54.39,-0.77,-39.62
652.456,413.824,84.912,54.25,-3.22,-44.73
595.36,517.28,110.288,53.76,-4.9,-52.99
699.792,386.496,93.696,52.99,-5.67,-62.23
736.88,335.744,130.296,50.4,-6.79,-72.45
782.752,350.384,175.68,46.69,-8.12,-82.32
838.872,426.024,191.784,42.35,-9.94,-92.05
882.304,469.456,192.272,38.22,-12.32,-101.64
956.968,504.592,188.368,34.02,-15.33,-109.83
1083.848,508.008,213.744,29.75,-19.11,-114.38
1168.76,492.392,254.248,24.92,-24.15,-112.35
1272.704,452.376,326.96,18.83,-30.17,-101.85
1389.336,417.728,411.384,11.41,-37.24,-82.95
1376.648,445.056,501.176,3.5,-45.22,-57.26
1378.112,484.096,540.216,-3.85,-52.92,-28.07
1330.776,513.864,579.744,-10.22,-60.2,0.07
1209.752,495.32,589.992,-15.4,-66.64,22.61
901.824,553.392,596.336,-19.46,-70.91,37.24
540.216,617.808,590.968,-21.7,-70.84,46.13
434.808,592.432,574.376,-22.05,-65.59,52.64
610.976,505.08,575.84,-21.56,-57.96,58.87
767.624,506.544,584.136,-21.28,-51.45,64.12
777.384,556.32,576.328,-21.0,-46.62,68.04
734.44,534.36,555.832,-20.65,-42.49,71.4
697.352,491.904,600.24,-21.0,-38.29,77.14
716.872,417.728,654.896,-22.05,-33.88,87.99
749.08,360.144,639.768,-23.52,-29.61,104.3
784.216,319.64,664.656,-24.64,-25.34,125.93
797.88,256.2,703.696,-25.06,-21.35,150.57
823.256,236.68,727.608,-24.92,-17.92,173.32
843.752,274.256,745.176,-24.08,-15.4,190.4
833.504,274.256,720.776,-22.12,-14.14,198.87
789.584,256.688,748.592,-19.46,-14.0,197.33
765.184,247.904,821.792,-16.45,-14.84,184.94
722.24,285.48,845.704,-12.95,-17.22,161.42
688.568,259.616,758.84,-9.73,-20.51,127.12
686.616,257.176,686.128,-7.84,-23.52,88.06
687.592,275.232,671.0,-6.23,-25.41,57.12
679.296,237.168,662.216,-4.55,-25.62,41.72
669.536,173.728,662.704,-3.5,-23.87,39.97
713.944,136.152,646.112,-3.29,-20.58,47.67
806.176,145.912,573.4,-3.5,-17.29,61.95
818.864,153.232,562.176,-3.36,-14.77,79.1
765.672,99.064,601.216,-2.45,-12.32,94.99
764.696,57.096,595.848,-1.12,-9.38,107.66
778.848,64.416,591.944,0.49,-6.3,118.44
790.072,85.4,626.592,2.66,-3.64,128.17
773.48,91.744,672.952,5.11,-1.12,135.59
810.08,94.672,705.16,7.77,1.33,140.07
882.792,65.88,727.12,10.5,3.29,142.45
885.232,85.888,789.584,13.3,4.34,144.48
954.528,40.504,919.88,16.38,5.11,147.42
975.024,60.512,927.688,19.39,5.39,150.64
991.616,35.624,914.024,22.89,5.6,152.46
1064.328,12.2,955.992,26.53,5.88,151.55
1144.36,35.624,989.664,30.66,6.09,149.1
1169.736,28.792,962.336,35.91,6.02,143.99
1171.2,26.352,937.448,42.07,6.65,133.0
1162.904,25.376,883.28,49.42,8.4,114.59
1136.552,25.864,828.624,57.82,11.69,90.09
1133.136,33.672,808.128,66.85,16.94,64.05
1158.024,47.824,768.6,76.65,23.66,41.37
1156.56,49.776,767.136,87.01,31.5,23.59
1153.632,25.376,754.448,97.72,40.53,8.33
1169.248,20.984,758.352,108.57,50.68,-6.44
1158.512,-4.392,779.336,119.07,61.39,-21.77
1149.728,-39.04,792.512,128.59,72.31,-39.27
1135.576,-78.568,791.536,136.64,83.16,-56.91
1104.832,-127.368,809.104,143.08,93.8,-71.89
1118.496,-181.048,824.232,147.77,103.95,-82.25
1161.928,-203.984,816.912,150.99,112.84,-86.73
1178.032,-214.232,796.416,153.16,119.91,-86.52
1151.192,-178.12,831.064,154.77,125.37,-83.79
1115.08,-181.536,792.024,156.38,129.71,-79.59
1074.088,-147.864,773.968,157.92,133.07,-74.9
1057.008,-138.592,795.44,159.88,135.38,-69.72
1047.248,-123.952,757.864,162.05,136.36,-66.15
1030.656,-123.952,765.672,164.57,135.94,-66.5
1040.904,-143.472,782.752,167.09,134.12,-71.47
1058.472,-142.008,754.936,169.33,130.9,-79.52
1098.0,-107.848,720.288,171.43,126.7,-87.01
1096.048,-64.416,696.376,173.32,122.08,-90.3
1111.664,-20.496,734.928,174.79,117.25,-87.08
1120.936,-11.224,723.704,175.91,111.79,-79.8
1081.896,19.52,740.784,176.19,105.98,-74.62
1073.112,57.584,676.856,175.63,100.38,-77.28
1071.648,144.936,635.864,174.79,95.48,-83.37
1043.344,175.68,592.432,174.16,91.28,-89.6
967.216,179.096,560.224,173.39,87.99,-96.67
878.4,174.704,570.96,171.92,85.96,-103.81
860.344,194.224,622.688,169.54,84.91,-108.92
858.392,218.136,647.088,166.67,84.0,-110.04
897.92,284.992,618.296,163.59,82.81,-106.4
911.096,338.672,573.888,160.86,81.13,-99.68
864.736,387.96,544.608,158.41,79.03,-93.59
827.648,445.544,504.104,156.31,77.07,-89.88
744.2,485.56,517.768,154.42,75.11,-88.41
700.28,522.16,507.032,152.53,73.29,-88.2
712.48,591.456,469.944,150.71,71.19,-87.36
713.944,649.528,405.04,149.31,68.39,-85.26
679.784,684.176,313.296,148.12,65.1,-83.93
631.96,719.8,240.584,146.86,61.6,-85.19
573.4,767.624,180.072,145.39,58.03,-89.81
526.552,781.288,112.728,143.64,54.25,-97.72
427.0,777.384,40.992,141.26,50.19,-107.03
366.976,776.408,-30.256,138.25,46.41,-114.17
422.608,838.384,-64.416,134.54,42.35,-114.31
524.6,940.376,-149.816,130.97,36.82,-105.42
575.352,979.416,-243.024,127.68,29.4,-92.75
522.648,924.272,-323.056,123.76,20.72,-84.56
548.024,892.552,-411.872,117.88,11.41,-84.14
661.24,965.264,-524.6,110.46,0.7,-86.03
762.256,979.416,-659.776,102.41,-12.04,-86.24
778.848,937.936,-847.168,93.03,-26.53,-86.45
789.096,847.656,-929.152,81.48,-42.0,-84.63
855.464,730.536,-1001.864,67.06,-58.66,-78.75
783.24,553.392,-1063.352,48.86,-76.93,-71.82
836.432,500.688,-1268.312,27.16,-95.83,-63.7
921.344,312.32,-1525.976,2.66,-115.64,-46.69
1341.024,98.088,-1862.208,-26.46,-137.2,-15.05
1620.16,-179.584,-2066.68,-62.02,-162.89,30.73
1748.504,-320.128,-2358.504,-106.05,-190.61,81.9
1667.984,-691.008,-2778.184,-159.04,-217.28,130.06
2049.6,-1077.504,-3156.872,-223.58,-241.15,166.88
2800.632,-1628.944,-3381.352,-300.79,-268.1,192.64
3167.12,-1948.584,-3360.856,-391.65,-301.7,207.55
3357.928,-1872.944,-3577.528,-492.31,-338.87,216.23
3382.816,-1988.112,-3869.352,-596.82,-377.58,201.67
4168.008,-2167.208,-3762.48,-701.96,-422.17,141.61
5637.864,-2664.48,-3100.752,-803.11,-486.71,54.32
6771.488,-3582.896,-2423.408,-897.75,-579.25,-35.56
7206.784,-4753.12,-1671.888,-984.27,-690.9,-106.75
6732.448,-3743.936,-1414.224,-975.87,-811.51,-39.27
-5065.44,-1825.608,-402.6,-640.15,-639.45,1285.69
-303.536,-3319.864,-1970.056,-797.79,-586.67,434.42
2582.008,-8185.224,-1870.992,-896.0,-659.96,-833.21
8336.992,-6582.144,-2465.864,-841.19,-828.24,-1210.37
11512.896,-4781.912,-1307.84,-710.22,-981.26,-782.88
8718.12,-4363.208,-727.608,-618.1,-1032.64,-60.69
5877.472,-2961.672,-883.768,-614.81,-974.82,421.05
3488.712,-1750.944,-1882.704,-626.08,-867.51,463.12
3058.784,-526.552,-2628.368,-590.31,-766.99,176.54
3378.424,-494.832,-3167.608,-496.72,-701.82,-169.26
3446.256,-909.632,-3118.808,-373.73,-661.36,-415.24
3367.2,-1795.84,-2664.968,-251.02,-623.42,-503.72
2948.008,-2449.76,-1925.648,-151.76,-575.96,-446.11
2667.896,-2464.888,-1432.28,-84.7,-519.26,-296.45
2461.96,-2160.864,-1245.864,-44.52,-461.65,-118.51
2171.112,-1833.416,-1029.68,-24.36,-408.66,30.8
1854.4,-1348.344,-801.784,-16.03,-361.27,125.93
1592.832,-975.024,-858.88,-11.9,-318.64,163.52
1500.112,-661.728,-897.432,-8.19,-279.79,149.24
1643.096,-463.112,-832.04,-2.73,-246.33,107.03
1807.064,-465.064,-593.408,3.85,-220.01,62.93
1773.88,-536.312,-349.896,9.03,-200.69,31.08
1668.96,-698.328,-147.864,11.41,-185.22,18.69
1567.456,-615.856,-34.648,10.71,-171.5,30.1
1614.304,-526.552,53.192,8.12,-158.83,62.79
1742.16,-329.4,267.424,4.2,-148.4,106.12
1739.72,-177.144,425.048,-0.42,-141.05,144.69
1678.232,4.88,511.424,-5.53,-135.38,165.83
1536.224,243.024,626.592,-9.8,-129.92,164.57
1395.192,499.712,647.576,-11.27,-123.76,139.23
1207.312,677.344,647.088,-8.61,-116.13,91.7
1111.176,760.792,661.24,-2.1,-106.61,35.56
1049.2,786.168,601.216,7.63,-95.41,-6.44
1041.392,760.792,601.704,18.83,-82.74,-21.7
1028.704,743.712,607.56,30.31,-69.51,-14.14
1011.624,576.816,569.984,40.81,-56.07,2.94
991.616,509.472,537.776,48.93,-42.77,17.15
921.832,491.904,429.44,55.86,-29.75,23.73
753.96,516.792,302.56,62.65,-15.75,19.11
574.864,487.512,151.28,70.21,0.42,3.43
520.208,402.112,49.776,77.98,18.9,-18.34
523.624,359.168,-59.048,85.68,38.57,-35.0
500.688,323.056,-197.64,93.52,58.87,-38.22
460.184,291.336,-337.208,101.64,79.66,-29.19
412.848,270.84,-475.8,109.83,100.87,-14.63
376.736,292.312,-576.328,118.44,121.94,-0.14
395.28,315.248,-635.864,127.54,142.17,9.87
473.848,309.88,-671.0,136.92,160.72,11.9
634.4,262.056,-705.16,146.02,176.47,4.97
773.968,192.272,-821.304,154.56,189.07,-6.37
841.312,101.992,-996.008,162.47,199.36,-16.8
825.208,53.68,-1104.344,169.68,208.88,-23.8
767.136,17.08,-1169.736,176.75,218.68,-25.13
719.8,-4.88,-1242.936,183.82,229.04,-21.07
742.736,13.176,-1222.928,191.03,239.26,-14.28
826.672,61.0,-1265.384,198.66,248.22,-7.49
939.4,59.048,-1312.232,206.43,255.01,-2.66
1040.416,-47.336,-1252.208,213.78,259.28,-2.66
1153.144,-249.856,-1195.6,218.96,260.96,-10.64
1284.416,-349.408,-1208.288,221.27,260.33,-26.88
1356.152,-358.68,-1238.056,222.25,258.44,-44.45
1341.512,-311.344,-1276.608,223.23,256.27,-57.75
1253.672,-184.952,-1347.368,225.54,255.29,-64.54
1220.976,-128.344,-1381.04,229.74,255.71,-65.38
1271.24,-214.72,-1401.048,234.78,256.69,-64.82
1336.144,-357.704,-1404.464,238.7,257.18,-66.57
1372.256,-491.904,-1352.248,240.45,256.9,-73.29
1373.72,-592.432,-1347.368,240.17,256.34,-85.4
1293.688,-651.48,-1319.064,238.0,256.48,-100.45
1213.656,-651.968,-1258.552,234.71,258.23,-115.29
1219.512,-675.88,-1236.592,231.0,261.24,-125.86
1289.784,-666.608,-1248.792,227.15,264.53,-127.68
1346.88,-637.816,-1228.296,223.93,266.91,-119.98
1372.744,-610.0,-1180.96,221.76,268.1,-105.77
1383.48,-554.856,-1130.696,220.5,267.82,-89.25
1343.952,-517.28,-1028.216,220.08,266.21,-75.39
1304.912,-510.448,-947.208,220.08,263.62,-68.81
1295.64,-479.704,-831.064,219.45,260.05,-69.79
1316.624,-468.48,-766.648,217.98,255.57,-75.32
1335.168,-457.744,-721.264,215.6,250.18,-83.51
1357.128,-431.392,-649.04,212.17,243.88,-92.05
1354.2,-397.72,-567.056,208.04,237.02,-98.91
1319.064,-368.928,-509.472,203.35,229.67,-104.37
1243.424,-341.112,-441.64,198.31,222.39,-108.99
1165.344,-321.104,-377.224,192.92,215.6,-112.63
1124.352,-327.448,-345.992,186.97,209.16,-114.45
1100.928,-333.792,-339.16,180.39,202.79,-113.26
1081.408,-293.288,-300.608,173.46,196.07,-107.94
1036.024,-268.4,-264.496,166.67,188.93,-99.19
993.568,-245.952,-226.92,159.88,181.44,-88.13
950.136,-209.352,-186.904,153.23,173.67,-75.32
904.264,-169.336,-171.776,146.93,165.55,-62.3
821.792,-99.064,-132.248,141.05,157.29,-50.61
774.944,-61.976,-111.264,135.87,149.03,-41.58
758.84,-69.784,-91.744,130.9,140.56,-35.84
756.888,-90.28,-82.472,125.79,131.6,-32.27
784.704,-97.112,-77.104,120.54,122.15,-28.49
806.176,-48.8,-69.296,115.22,112.21,-21.98
807.64,20.496,-73.2,110.67,101.78,-12.53
793.0,70.272,-88.328,107.1,91.07,-1.54
765.184,112.24,-88.816,104.3,80.36,9.24
750.056,132.736,-78.568,102.06,69.72,18.55
725.168,116.144,-61.0,100.17,59.08,25.41
706.624,99.552,-41.968,98.21,48.65,29.89
666.608,89.304,-30.744,96.25,38.64,32.9
685.152,230.824,28.792,93.17,29.96,28.7
544.12,417.728,38.064,89.11,22.68,12.04
564.128,426.024,25.864,83.65,17.01,-14.56
433.344,632.936,13.176,75.6,11.41,-47.95
774.944,379.664,-58.072,66.29,5.39,-69.86
751.52,254.248,-134.2,56.42,-1.47,-71.33
561.688,251.32,-80.032,49.21,-5.46,-48.72
561.688,217.16,16.592,44.66,-6.72,-14.77
566.08,241.072,58.56,41.79,-6.93,24.01
616.832,244.0,57.584,39.97,-6.86,62.37
670.512,230.824,94.672,38.08,-7.42,94.64
684.176,221.552,152.256,36.12,-8.75,115.29
735.904,190.32,216.672,33.67,-10.5,122.08
829.6,162.016,260.104,30.73,-13.09,116.13
918.904,139.08,276.696,27.37,-16.59,101.29
987.224,120.536,300.608,23.87,-20.58,83.23
1079.456,112.728,355.264,20.51,-24.36,68.04
1192.184,129.808,435.296,17.36,-27.37,60.97
1289.296,143.96,512.4,14.77,-29.89,61.67
1369.328,130.296,587.064,12.32,-32.41,65.31
1389.824,107.848,626.592,9.38,-35.21,67.48
1351.76,105.896,635.376,5.67,-38.15,65.8
1302.96,101.992,628.544,1.4,-40.74,59.78
1273.192,73.2,632.936,-3.15,-42.91,51.17
1242.448,65.88,654.408,-7.63,-44.73,42.98
1248.304,50.264,665.632,-11.69,-46.34,37.03
1243.424,27.328,696.376,-15.33,-48.3,33.67
1238.056,-3.416,725.168,-18.69,-50.61,32.41
1232.2,-44.408,755.424,-21.98,-53.2,33.32
1177.056,-84.424,750.056,-25.41,-55.72,37.17
988.2,-44.896,742.736,-28.77,-57.19,44.66
732.976,58.072,717.848,-30.87,-55.86,56.14
569.984,126.392,682.712,-30.73,-50.96,71.26
485.072,176.656,673.44,-28.49,-43.68,88.41
499.712,199.592,652.944,-24.36,-35.42,104.37
550.952,180.56,623.664,-19.6,-27.93,116.13
582.184,174.216,655.384,-14.7,-21.77,122.99
591.456,158.112,721.752,-9.24,-16.73,125.51
664.656,97.6,783.728,-3.36,-12.32,125.02
699.792,76.128,841.8,2.87,-8.96,123.2
712.48,83.448,890.112,9.38,-6.37,122.22
739.808,72.224,906.216,16.24,-4.13,122.71
760.304,25.376,921.832,23.24,-2.03,124.04
813.496,9.272,942.816,29.68,0.14,125.72
894.016,46.36,945.744,36.05,2.17,127.26
983.808,84.424,943.792,42.7,3.85,127.89
1021.872,133.712,906.216,49.98,5.39,126.07
979.416,107.848,989.176,58.1,7.35,119.91
1018.944,76.616,1041.88,66.99,10.71,109.06
1074.088,61.0,997.472,76.44,14.91,96.11
1120.448,58.56,1043.832,86.59,20.02,83.3
1226.832,53.68,1075.064,97.16,25.76,70.84
1260.992,62.464,1105.808,107.8,31.5,59.22
1247.328,50.264,1150.216,118.3,37.52,47.04
1252.696,-31.232,1171.2,128.1,44.1,32.97
1253.184,-63.44,1201.456,136.92,50.89,18.2
1226.832,-97.112,1190.72,144.97,57.96,3.85
1227.32,-118.096,1204.384,152.11,65.38,-9.52
1250.744,-109.8,1204.872,158.41,72.87,-21.42
1224.392,-108.336,1203.896,164.36,80.29,-32.55
1187.792,-135.176,1193.648,169.89,88.27,-44.45
1182.912,-176.656,1204.384,174.72,96.95,-57.26
1238.544,-220.576,1211.704,178.71,105.63,-67.83
1301.496,-260.592,1224.88,182.14,113.4,-71.61
1343.952,-328.424,1186.816,184.8,119.91,-65.52
1356.152,-394.304,1117.032,187.18,124.67,-49.21
1373.232,-387.96,1029.68,190.47,126.77,-24.92
1297.592,-356.24,947.208,195.37,125.72,-5.04
1187.792,-270.352,854.976,201.25,122.57,-2.1
1115.08,-206.912,832.04,207.41,118.86,-18.55
1128.256,-169.824,771.04,213.22,115.57,-48.65
1160.464,-142.008,736.392,217.98,112.98,-82.46
1202.432,-129.808,728.584,221.62,111.02,-107.66
1234.64,-119.56,744.2,224.07,109.2,-117.46
1195.112,-98.088,716.384,225.61,107.03,-114.45
1071.648,-64.416,704.672,226.24,104.79,-106.19
1030.168,-34.16,725.656,225.89,102.48,-98.28
1060.424,37.576,732.0,224.63,98.84,-90.58
1129.72,119.072,731.512,222.81,93.03,-82.53
1150.704,170.312,705.16,220.57,84.91,-76.3
1151.192,249.856,687.592,218.12,75.53,-75.18
1038.952,328.424,601.704,215.81,66.15,-81.9
982.344,422.12,547.048,213.71,58.24,-95.34
1023.336,569.496,501.176,211.96,51.31,-108.22
1040.904,712.48,482.144,210.98,44.31,-115.08
1013.576,861.32,464.576,210.63,37.1,-117.81
870.592,962.824,539.728,210.7,30.31,-120.4
855.464,1048.712,558.272,210.49,24.71,-125.37
926.712,1145.824,497.76,209.93,19.11,-131.81
1025.288,1187.304,402.112,209.09,12.88,-138.32
1070.672,1151.68,270.84,207.55,5.81,-144.97
1047.248,1105.808,222.04,204.61,-1.61,-150.43
1025.288,1051.64,95.648,199.85,-8.89,-151.69
988.2,1017.48,-118.584,193.2,-16.31,-146.79
900.36,865.224,-358.192,184.59,-23.66,-138.32
801.784,697.84,-581.696,172.9,-30.8,-131.6
812.52,620.736,-805.688,158.55,-37.87,-127.26
886.208,545.096,-1040.904,143.01,-45.99,-123.48
955.016,464.576,-1284.904,126.49,-55.86,-120.19
1008.696,205.936,-1549.4,108.5,-67.48,-116.41
1093.608,-105.896,-1665.544,86.66,-80.57,-110.04
1306.376,-472.384,-1823.168,59.5,-95.69,-98.14
1624.552,-711.504,-1968.104,26.18,-114.38,-76.86
1985.184,-1071.648,-2342.4,-13.3,-137.48,-48.23
2284.816,-1615.768,-2691.808,-61.11,-165.48,-23.52
2567.368,-2151.592,-3015.84,-119.84,-197.96,-12.53
3210.552,-2367.288,-3294.0,-188.16,-235.69,-9.38
3228.12,-3082.696,-3683.424,-263.97,-281.12,-14.91
3357.928,-3350.608,-4167.032,-349.65,-329.63,-27.37
4033.32,-3872.28,-4242.184,-443.03,-384.44,-18.83
5305.536,-4083.584,-3491.152,-546.98,-450.87,23.73
6384.504,-4686.752,-2118.408,-662.41,-532.14,82.11
6945.704,-5445.104,-335.744,-791.91,-623.77,104.23
6728.056,-6576.776,1515.24,-930.16,-717.36,81.55
5757.912,-7510.808,3090.016,-1068.13,-797.93,55.02
3325.72,-6355.224,4165.568,-1188.74,-843.29,73.78
3351.584,1823.168,-2084.248,-346.5,-753.27,-72.03
2289.696,-2449.76,-2594.208,-144.2,-107.94,24.43
3873.256,-5941.4,1438.136,-187.18,-310.66,10.78
6509.92,-4101.64,1554.28,-77.28,-472.22,61.39
5955.064,-4877.072,2414.624,-150.43,-556.36,197.96
5464.624,-2799.656,1861.72,-257.88,-786.03,323.12
4291.96,-1450.336,1345.416,-463.54,-804.72,296.59
3502.376,-1037.976,651.48,-498.26,-779.94,151.9
2633.736,-1243.424,88.328,-413.21,-756.56,27.09
1969.08,-1852.448,-324.032,-319.83,-724.92,-34.3
1615.28,-2495.632,-534.36,-241.99,-683.9,-39.2
1521.096,-3008.52,-518.256,-185.15,-636.86,-8.82
1544.032,-3020.232,-510.936,-150.29,-588.0,39.55
1406.416,-2750.368,-500.688,-130.69,-539.14,93.52
1193.648,-2228.208,-489.464,-119.49,-488.95,143.64
1175.104,-1802.184,-693.936,-111.65,-437.29,183.96
1162.904,-1589.904,-780.8,-104.86,-386.12,211.96
1132.648,-1376.648,-710.528,-98.98,-336.63,225.54
1140.456,-1158.512,-627.568,-92.54,-289.59,228.97
1265.384,-1000.4,-540.704,-84.7,-246.19,227.57
1412.272,-892.064,-502.64,-76.37,-207.76,227.5
1542.568,-753.472,-488.0,-68.53,-174.86,230.65
1719.712,-677.344,-504.592,-61.53,-146.86,234.01
1922.232,-591.944,-477.264,-55.44,-124.18,232.05
2034.96,-575.84,-357.704,-50.12,-106.4,220.36
2022.76,-586.576,-248.88,-45.57,-92.4,198.17
1894.904,-523.624,-138.104,-41.58,-80.5,168.91
1694.824,-311.832,-184.464,-35.56,-68.6,138.04
1481.08,-123.464,-321.104,-25.9,-55.16,109.9
1352.248,-32.208,-457.744,-12.88,-39.55,90.58
1300.032,-8.296,-535.336,1.61,-22.82,85.12
1333.704,-30.744,-598.776,16.31,-6.3,91.91
1311.256,-13.176,-629.032,30.31,8.75,100.52
1330.288,-14.152,-638.304,43.96,22.19,100.1
1278.072,18.544,-654.896,57.33,33.67,86.73
1178.52,64.904,-681.736,71.26,44.03,63.28
1044.32,63.928,-776.408,85.89,54.39,35.7
906.704,55.632,-868.152,101.01,65.38,9.38
872.544,36.6,-990.64,116.41,77.35,-10.85
881.816,-21.96,-1134.112,131.81,89.32,-21.49
893.04,-88.328,-1225.368,146.51,100.87,-21.7
810.568,-152.256,-1317.112,160.37,111.72,-12.46
727.608,-282.552,-1403.0,172.9,122.57,1.19
676.856,-387.472,-1454.24,183.47,133.0,12.81
669.536,-468.48,-1460.096,192.22,142.59,17.36
736.88,-565.104,-1462.536,199.5,150.85,12.95
829.6,-621.224,-1483.52,205.73,157.43,0.28
924.272,-642.208,-1484.984,211.54,162.68,-16.1
943.304,-623.176,-1563.064,217.63,166.95,-31.01
919.392,-567.544,-1628.944,224.56,171.57,-41.02
926.712,-527.04,-1649.44,232.61,176.68,-43.26
957.456,-541.192,-1650.416,241.22,181.65,-39.34
982.344,-538.264,-1597.712,249.76,185.78,-34.16
973.072,-556.32,-1475.712,257.53,188.79,-31.36
935.984,-539.728,-1288.32,264.04,190.82,-32.62
905.24,-499.224,-1114.104,269.29,192.01,-38.01
862.296,-469.456,-953.552,273.28,192.57,-46.69
867.176,-487.024,-800.32,275.66,192.64,-57.19
898.408,-543.144,-726.144,276.22,191.87,-68.04
936.472,-594.384,-590.48,274.54,190.19,-77.0
972.096,-659.776,-496.784,270.9,187.39,-81.27
1008.208,-641.232,-440.176,265.79,183.33,-81.62
985.272,-610.0,-386.496,260.68,178.43,-78.12
931.104,-583.16,-354.288,255.85,173.25,-73.01
869.616,-570.472,-352.336,251.37,168.21,-68.6
810.08,-556.808,-355.264,247.31,163.66,-64.4
808.128,-563.64,-384.544,243.46,159.6,-59.71
837.896,-576.816,-466.04,239.96,155.54,-54.81
830.088,-570.472,-515.328,236.67,151.34,-51.17
814.472,-560.712,-538.752,233.8,147.07,-49.0
791.048,-571.448,-551.928,231.14,143.15,-48.3
743.712,-564.616,-528.504,228.2,139.58,-49.0
714.92,-559.736,-499.712,225.19,136.43,-50.96
724.192,-558.272,-464.088,221.9,133.42,-52.92
757.376,-550.464,-440.176,218.26,130.06,-53.83
763.72,-551.44,-418.704,213.99,126.14,-53.27
799.344,-563.152,-338.184,209.23,121.59,-51.31
827.648,-555.344,-286.456,203.7,116.13,-48.58
857.416,-566.568,-235.704,197.54,109.9,-45.99
897.432,-578.768,-173.728,190.47,102.76,-43.89
955.504,-610.488,-147.376,182.49,94.78,-42.84
1014.064,-633.424,-150.792,173.53,85.75,-44.1
1044.32,-648.552,-103.456,163.66,75.95,-47.46
1077.992,-635.864,-60.512,153.23,65.73,-52.5
1070.672,-594.872,-42.456,142.59,55.3,-58.8
1039.928,-546.072,-17.08,132.23,45.22,-64.82
1000.888,-523.136,0.0,122.29,35.84,-69.23
960.384,-472.872,39.528,112.56,27.23,-70.77
946.232,-430.416,64.904,103.53,19.18,-68.53
935.496,-392.352,82.472,95.06,11.62,-62.79
933.544,-352.824,110.288,87.01,4.27,-54.67
944.768,-294.264,149.328,79.66,-2.94,-45.43
939.888,-229.36,170.8,72.94,-10.08,-36.75
907.192,-193.736,185.44,66.92,-17.08,-30.66
864.248,-148.352,217.648,61.32,-23.31,-28.28
835.944,-112.728,230.824,56.35,-28.91,-28.77
808.128,-77.104,241.072,51.87,-33.88,-30.73
787.632,-62.952,243.024,48.02,-38.29,-32.83
779.336,-38.552,253.76,44.52,-42.21,-34.37
773.48,-7.32,235.704,41.86,-45.78,-35.49
773.48,32.208,225.456,39.83,-49.07,-35.91
790.56,87.352,231.312,38.71,-52.29,-35.35
976.488,502.152,393.816,37.31,-54.53,-36.89
815.448,534.36,356.728,35.07,-55.16,-63.84
876.448,138.104,156.648,29.68,-54.81,-107.66
767.624,330.864,274.256,25.9,-55.65,-122.08
854.0,210.816,135.176,27.16,-56.07,-111.16
809.592,195.688,137.616,28.84,-56.56,-87.01
755.912,190.32,224.48,30.73,-56.56,-58.87
770.552,158.112,224.968,32.13,-55.72,-34.44
758.352,162.992,203.008,32.69,-54.81,-15.75
723.216,169.336,207.4,33.32,-53.83,-2.59
711.504,136.64,210.328,34.16,-52.85,4.34
716.872,101.992,211.792,35.14,-52.08,5.53
716.872,91.256,207.4,36.12,-51.59,2.31
734.928,62.952,223.504,36.82,-51.1,-3.71
783.24,49.288,252.296,37.1,-50.75,-9.8
823.744,56.12,260.592,36.75,-50.68,-12.67
906.704,31.72,255.224,35.63,-51.24,-9.31
925.248,11.224,232.288,33.39,-52.29,-0.84
937.936,-5.368,250.344,30.24,-52.99,10.15
975.024,-38.552,244.976,26.39,-53.06,23.1
1018.456,-45.384,221.552,21.98,-52.85,36.4
1013.088,-41.48,211.304,17.36,-52.57,48.16
1002.84,-70.76,186.416,12.74,-51.94,55.93
1004.792,-92.72,171.776,7.84,-50.75,59.15
1035.048,-99.552,165.432,3.01,-49.07,59.08
1091.168,-110.288,167.872,-1.61,-47.18,57.19
1153.632,-111.264,172.264,-5.95,-45.36,54.18
1190.232,-107.848,177.632,-10.01,-43.75,50.68
1225.368,-93.696,197.64,-13.72,-41.93,46.76
1260.504,-93.696,224.48,-17.29,-39.9,42.77
1301.984,-87.352,260.592,-20.51,-38.01,38.5
1316.624,-67.344,294.264,-23.52,-36.33,33.46
1297.104,-52.216,321.592,-25.97,-34.79,27.3
1260.992,-57.584,347.944,-27.86,-32.9,19.67
1236.104,-72.712,365.512,-29.19,-30.59,10.92
1220.488,-56.12,390.4,-29.89,-28.21,2.38
1190.72,-58.072,413.336,-29.54,-25.62,-4.76
1144.36,-47.336,439.2,-28.42,-22.68,-9.8
1097.024,-29.768,465.064,-26.53,-18.9,-12.39
1024.312,25.376,526.552,-24.01,-14.49,-12.67
980.392,33.184,528.992,-20.79,-9.45,-13.02
978.44,-23.424,444.08,-17.78,-4.41,-15.96
932.08,-14.152,430.904,-15.26,0.42,-21.63
873.032,20.984,448.472,-12.88,5.53,-27.09
823.744,22.448,449.936,-10.57,10.71,-29.33
806.664,20.496,454.328,-8.75,15.61,-27.44
787.632,8.784,473.848,-7.63,19.74,-22.54
797.88,-4.88,501.176,-7.14,23.1,-15.26
856.44,-90.768,587.064,-7.07,25.41,-4.97
904.752,-119.56,696.864,-7.84,26.46,10.01
896.456,-94.672,730.536,-8.61,26.6,28.84
875.96,-111.752,719.312,-8.96,26.53,47.81
831.064,-115.168,732.488,-9.38,26.25,63.0
812.032,-118.584,747.128,-9.94,26.04,73.43
813.496,-128.344,723.704,-10.43,25.69,79.94
819.84,-118.096,710.528,-10.71,25.41,83.79
815.936,-129.32,683.2,-10.43,25.34,85.75
853.512,-136.64,696.864,-9.8,25.48,86.52
902.8,-136.64,746.64,-8.47,25.55,87.71
948.184,-153.232,813.984,-6.09,25.83,90.72
1001.376,-182.024,843.752,-2.45,26.67,95.69
1039.44,-174.704,856.928,2.45,28.42,101.85
1079.944,-138.592,865.712,8.75,31.15,108.22
1087.264,-82.472,875.96,16.59,34.72,112.35
1064.816,-74.176,868.64,26.11,39.06,111.02
1052.128,-74.664,891.088,36.75,44.45,103.25
1062.864,-74.664,953.552,48.51,50.33,91.0
1125.328,-108.824,975.512,61.18,56.42,75.81
1160.464,-119.56,1019.432,74.2,62.16,58.73
1182.424,-126.88,1066.28,87.64,67.9,42.0
1198.528,-139.568,1083.848,101.15,73.57,26.25
1204.384,-133.712,1108.248,114.66,79.17,12.81
1196.088,-150.304,1113.128,128.1,84.42,3.43
1145.336,-155.672,1132.648,141.33,89.39,-3.22
1104.832,-181.048,1145.824,154.0,94.29,-9.59
1080.432,-206.424,1160.464,165.97,99.12,-16.66
1056.52,-239.608,1180.96,176.54,103.53,-22.75
1039.44,-278.16,1206.824,185.57,107.59,-26.25
1026.264,-295.728,1195.6,193.27,111.02,-26.32
961.36,-331.352,1193.648,200.06,113.68,-24.15
917.928,-361.608,1183.4,206.22,115.85,-22.26
918.904,-356.24,1166.808,212.24,117.11,-20.09
902.8,-372.832,1107.272,218.54,117.25,-17.15
899.384,-394.304,1084.824,225.05,116.48,-13.93
891.088,-358.192,1073.6,231.56,114.87,-10.78
854.488,-325.008,1058.96,238.07,112.7,-11.2
861.808,-305.0,1053.592,244.09,110.6,-16.31
837.408,-273.768,987.224,249.48,108.29,-23.66
764.696,-242.048,931.104,254.17,106.19,-31.5
713.456,-223.504,848.144,258.02,104.79,-38.85
660.264,-196.176,833.504,260.82,103.74,-43.54
689.056,-220.088,830.576,262.5,102.48,-44.03
697.352,-218.624,810.568,262.85,100.24,-40.95
734.928,-178.12,774.456,262.01,96.95,-36.4
693.448,-141.52,695.888,260.61,92.68,-33.81
589.016,-104.432,671.976,258.58,88.48,-35.77
563.64,-61.0,632.448,255.71,85.05,-40.46
609.512,-20.008,601.216,252.14,81.55,-43.05
720.776,64.904,556.808,247.87,77.21,-42.0
815.448,131.76,494.344,243.46,71.12,-37.45
793.488,203.008,418.704,238.77,63.77,-32.9
782.264,278.648,326.472,233.94,56.21,-31.92
679.296,331.352,251.808,228.9,48.93,-36.26
586.088,335.744,210.328,223.37,43.12,-47.04
560.224,338.184,155.184,217.07,38.71,-61.11
612.44,339.648,126.392,209.79,35.0,-71.4
677.832,318.664,78.568,201.53,31.01,-73.22
710.04,271.328,37.576,192.15,26.04,-66.22
729.56,274.256,-49.776,181.37,20.09,-53.13
705.16,314.76,-161.04,169.82,13.3,-37.24
624.152,308.416,-264.496,157.78,6.23,-24.36
627.08,275.232,-403.088,144.97,-0.63,-17.57
713.944,300.608,-552.416,131.18,-8.12,-13.02
762.744,308.904,-692.96,116.9,-16.8,-6.23
797.392,405.528,-845.216,102.06,-26.53,4.76
904.752,464.576,-1061.4,86.87,-37.38,20.86
1026.264,498.248,-1266.36,70.91,-50.26,38.15
1046.76,407.968,-1504.504,53.27,-65.1,50.68
1098.488,223.504,-1689.456,32.27,-80.92,55.86
1407.88,74.176,-1980.792,7.0,-98.07,59.92
1746.552,-74.664,-2351.184,-22.68,-117.95,70.49
1919.792,-230.336,-2622.024,-57.47,-140.35,87.22
1952.0,-413.336,-3016.816,-99.47,-163.38,103.32
2284.328,-326.472,-3447.72,-149.17,-186.83,108.92
2604.456,-760.304,-3728.808,-206.85,-215.25,81.55
3058.784,-1297.104,-3944.992,-275.59,-251.79,4.55
3489.2,-2019.832,-3959.144,-354.2,-300.16,-98.56
4166.544,-3172.0,-3876.672,-441.98,-362.18,-182.28
4842.424,-4293.912,-3392.576,-541.8,-437.64,-200.62
5367.024,-5385.08,-2397.544,-656.53,-520.45,-140.84
5690.568,-6551.4,-915.488,-791.0,-600.04,-39.13
5241.12,-7510.32,621.712,-946.12,-664.72,58.52
4229.008,-8485.344,2077.416,-1116.22,-700.49,134.54
2131.096,-5519.768,2383.88,-1255.31,-702.73,211.61
1450.824,-1799.256,-1167.296,-651.49,-483.84,310.1
-157.624,-6964.248,1025.288,-583.8,-264.04,269.99
2098.888,-10709.16,1640.168,-909.16,-447.58,105.84
4441.288,-8516.088,2361.432,-1042.44,-589.54,41.44
5660.312,-6016.552,2600.552,-1125.95,-612.01,124.88
5648.112,-3538.976,1965.176,-1142.75,-603.96,260.61
4139.704,-2467.328,824.232,-1101.94,-566.23,331.52
2641.056,-1597.224,-610.0,-1021.16,-512.89,275.73
1557.696,-1366.888,-1651.392,-911.54,-463.54,151.97
1287.832,-1096.536,-2350.696,-786.1,-426.93,15.61
1568.432,-1317.112,-2739.144,-655.76,-403.76,-96.67
1722.152,-2073.024,-2763.544,-533.96,-387.03,-155.75
1738.744,-2699.128,-2198.44,-433.65,-367.64,-163.38
1506.944,-3142.232,-1519.144,-357.56,-340.97,-123.97
1281.0,-3230.072,-680.272,-303.94,-306.67,-59.78
1357.128,-2693.272,-185.44,-263.97,-268.24,3.36
1600.152,-1627.48,-16.104,-225.05,-230.72,54.32
1747.04,-730.048,-79.056,-179.2,-195.37,95.9
1687.016,-138.104,-141.52,-127.12,-161.35,123.83
1588.928,-133.224,-91.744,-75.04,-128.31,131.6
1653.344,-300.12,6.344,-29.75,-98.14,122.92
1735.328,-525.576,166.896,5.88,-73.15,110.67
1672.864,-606.096,235.216,32.62,-53.06,100.73
1550.864,-541.68,265.96,53.2,-36.05,92.96
1532.808,-492.392,242.048,70.14,-21.21,84.84
1530.368,-474.824,245.952,84.42,-9.45,67.83
1547.936,-455.792,239.12,95.76,-0.7,37.45
1605.52,-332.328,198.616,105.42,5.46,5.25
1612.352,-238.144,114.192,114.73,9.59,-18.69
1609.912,-103.944,37.576,124.25,12.25,-32.13
1607.96,-133.712,-1.952,133.63,13.58,-36.61
1575.264,-166.896,-62.952,142.03,13.58,-37.38
1541.592,-191.296,-89.792,149.1,12.39,-37.03
1515.24,-141.032,-156.16,155.33,10.29,-34.09
1443.504,-5.856,-264.984,161.84,7.56,-27.51
1374.208,128.832,-380.152,169.75,4.83,-19.46
1322.48,226.92,-494.832,179.34,2.1,-12.81
1247.816,311.832,-592.432,190.19,-0.35,-8.68
1188.28,400.648,-608.048,202.02,-2.52,-7.28
1139.968,410.408,-693.448,214.48,-4.27,-10.92
1080.432,458.72,-766.648,226.8,-5.46,-19.95
1024.312,528.016,-832.528,239.19,-5.67,-30.52
1027.24,461.16,-892.064,251.23,-4.83,-40.6
1012.6,368.928,-903.288,261.52,-3.57,-50.89
976.488,326.472,-933.056,269.99,-1.61,-61.11
930.128,313.296,-989.664,276.99,1.26,-68.74
867.176,196.664,-1004.792,282.59,5.18,-73.36
678.32,197.152,-1006.744,286.16,10.36,-78.05
569.008,170.312,-1031.632,288.61,17.5,-82.46
622.688,38.064,-1040.904,289.52,25.55,-85.89
697.352,-78.568,-1046.76,288.47,32.76,-89.04
774.456,-216.672,-1083.36,285.67,38.85,-90.93
794.952,-373.32,-1110.688,281.33,43.96,-91.07
598.288,-312.32,-1161.44,275.94,49.0,-88.69
443.104,-272.304,-1265.384,271.32,56.07,-82.88
459.208,-336.232,-1274.656,267.19,64.47,-75.04
575.84,-483.12,-1221.952,262.5,72.03,-68.95
750.544,-670.024,-1158.024,256.48,77.56,-66.85
895.48,-786.168,-1077.992,248.99,80.57,-67.55
934.52,-852.048,-1005.768,240.8,81.97,-70.0
894.992,-873.032,-945.744,232.75,83.3,-75.04
901.824,-885.72,-912.56,224.98,85.61,-81.06
910.12,-877.912,-931.592,217.7,88.9,-84.7
852.536,-838.384,-879.376,210.98,93.31,-85.82
821.792,-801.784,-814.472,205.31,98.98,-85.54
857.904,-794.464,-765.672,200.2,105.21,-83.93
887.672,-779.336,-712.48,195.44,111.23,-80.43
900.36,-753.96,-611.952,190.89,116.9,-74.06
930.128,-755.424,-488.488,186.48,121.8,-64.12
966.728,-718.336,-378.688,181.72,125.58,-51.66
979.904,-640.744,-271.816,177.31,127.96,-38.57
988.688,-546.56,-164.944,173.6,129.22,-27.51
990.152,-436.272,-72.712,170.87,129.43,-21.0
985.272,-359.168,-16.104,169.19,128.87,-19.74
992.592,-275.72,26.352,168.07,127.89,-22.4
981.856,-240.584,60.024,167.37,126.42,-27.72
972.584,-241.072,100.04,166.53,124.81,-35.56
983.32,-234.24,134.2,165.2,122.99,-43.75
962.824,-220.576,187.392,163.38,120.96,-49.49
948.672,-239.12,237.168,161.21,118.86,-52.15
935.496,-238.632,278.16,158.2,116.55,-51.94
929.152,-236.68,334.768,154.84,113.96,-48.72
935.008,-232.776,379.176,151.2,110.88,-43.89
943.304,-208.376,403.576,147.49,107.31,-38.85
964.288,-194.712,413.336,143.85,103.32,-35.84
987.712,-205.448,441.152,140.21,98.7,-36.05
1010.648,-201.544,471.896,136.36,93.59,-38.78
1041.392,-192.76,497.272,132.44,87.99,-42.35
1050.176,-183.488,508.008,128.66,82.04,-45.78
1046.272,-170.312,528.504,125.09,76.09,-49.42
1032.12,-143.472,526.064,121.73,70.28,-52.22
998.936,-134.2,520.696,118.79,64.89,-53.97
970.144,-134.2,507.032,115.99,60.13,-55.51
948.184,-134.688,492.392,113.4,55.79,-56.63
945.256,-164.456,486.536,110.74,51.87,-56.84
935.984,-149.328,493.368,107.8,48.02,-55.44
926.224,-159.576,501.176,104.65,43.96,-52.43
915.0,-142.984,506.544,101.15,39.83,-48.79
885.232,-114.68,497.272,97.58,35.42,-44.94
860.832,-80.52,494.832,93.8,30.94,-40.67
827.16,-42.456,473.36,90.16,26.32,-36.26
775.92,6.344,438.712,86.73,21.77,-32.69
735.416,30.744,410.896,83.51,17.36,-30.73
691.496,51.24,396.256,80.29,13.09,-30.87
664.168,66.856,381.616,77.14,8.75,-32.76
649.528,65.392,368.44,73.99,4.41,-35.7
646.6,93.208,367.464,70.84,-0.14,-38.64
599.752,142.496,366.0,68.04,-4.55,-41.79
661.728,366.0,316.224,64.33,-7.63,-58.52
569.008,491.904,360.632,59.92,-9.17,-88.83
626.104,453.352,294.752,54.6,-9.59,-124.88
622.688,517.28,276.208,47.81,-9.59,-166.46
695.888,471.896,236.68,41.65,-10.43,-196.56
787.632,459.696,207.888,35.77,-10.43,-193.48
782.752,214.72,179.096,28.91,-9.38,-152.81
721.264,203.496,218.624,20.37,-7.56,-103.95
697.352,200.08,227.408,13.02,-5.39,-60.06
709.064,197.152,223.504,7.14,-3.64,-26.32
708.088,218.624,249.856,3.22,-2.38,-4.13
675.392,262.056,318.664,1.47,-1.54,5.25
750.056,257.176,356.24,1.26,-1.19,3.08
771.04,281.088,388.448,1.89,-1.89,-7.49
755.424,309.88,409.432,3.08,-3.08,-22.4
758.352,296.216,390.888,4.34,-4.34,-39.13
751.52,293.776,389.912,5.6,-5.32,-54.25
737.856,286.944,396.256,7.0,-6.02,-64.26
747.128,278.16,400.16,8.61,-6.72,-67.55
753.96,301.584,402.6,10.08,-7.56,-65.1
751.52,340.136,379.176,10.85,-8.89,-59.08
755.424,341.112,364.048,10.36,-10.64,-50.33
749.08,345.992,353.312,8.12,-12.67,-41.09
753.96,347.456,356.728,5.11,-14.77,-32.34
715.408,371.856,345.016,2.17,-16.94,-23.38
689.056,386.984,337.696,0.42,-18.62,-14.0
666.12,398.208,332.816,-0.14,-19.88,-5.6
632.448,412.36,332.816,0.28,-20.65,0.0
628.056,425.048,334.768,1.54,-21.07,1.61
639.28,435.784,338.672,3.22,-21.63,-0.28
639.768,448.96,348.92,5.11,-22.26,-4.55
662.704,469.456,360.144,7.07,-22.89,-9.87
688.568,481.656,370.392,9.1,-23.52,-14.84
719.8,501.176,370.88,10.92,-24.22,-19.6
723.216,505.568,373.808,12.67,-24.92,-24.92
698.816,508.008,378.2,14.14,-25.27,-31.08
693.448,499.712,383.568,15.4,-24.85,-37.31
714.92,495.808,390.4,16.1,-23.52,-42.42
739.808,511.912,425.048,16.38,-21.21,-45.71
806.664,520.696,455.304,16.03,-18.13,-47.6
853.512,541.68,492.392,14.91,-14.7,-48.93
911.096,557.784,531.92,13.02,-10.78,-49.91
964.776,568.032,558.76,10.57,-6.65,-49.84
993.08,562.176,576.816,7.77,-2.52,-48.44
980.392,551.928,589.504,4.62,1.61,-46.13
954.04,526.552,587.064,1.26,5.95,-44.03
924.272,499.224,578.28,-2.38,10.36,-43.26
898.408,479.216,577.792,-6.23,14.7,-43.89
884.744,454.816,572.912,-10.01,18.83,-45.43
870.104,430.416,567.544,-13.86,22.4,-47.25
859.856,410.408,569.008,-17.64,25.34,-48.79
855.464,407.968,574.864,-21.42,27.58,-49.28
852.048,400.16,589.992,-24.99,29.05,-47.67
889.624,403.576,592.92,-28.35,29.75,-43.54
921.832,410.896,598.288,-31.29,29.4,-37.31
944.768,437.736,603.656,-33.67,28.07,-29.82
964.776,463.6,618.784,-35.35,25.83,-21.84
994.056,468.48,628.544,-36.26,22.82,-14.07
1007.72,470.92,619.272,-36.54,18.83,-7.84
997.96,462.624,604.144,-36.47,14.14,-3.78
971.12,444.568,575.352,-36.26,9.17,-1.89
909.144,431.392,543.632,-35.91,4.13,-1.89
828.624,420.656,507.52,-35.49,-0.35,-3.15
764.208,397.72,466.528,-35.07,-4.2,-5.18
716.872,370.392,433.344,-34.79,-7.49,-7.7
669.048,356.728,406.016,-34.65,-10.36,-10.08
642.208,344.528,385.52,-34.58,-12.81,-11.97
602.68,337.208,369.904,-34.72,-15.12,-13.79
558.76,320.616,354.288,-34.79,-17.01,-15.61
530.944,300.12,340.136,-34.86,-18.41,-17.43
504.104,293.776,325.496,-35.07,-19.46,-19.18
460.184,301.096,316.224,-35.21,-20.3,-20.79
459.696,283.04,309.392,-35.49,-20.79,-22.54
460.672,273.28,306.952,-35.84,-21.42,-24.08
458.72,295.728,313.296,-36.4,-22.12,-24.85
471.896,301.584,300.608,-36.82,-23.1,-24.78
483.608,304.512,294.264,-37.17,-24.22,-24.08
495.808,327.448,301.584,-37.59,-25.69,-23.24
520.696,345.504,304.512,-37.94,-27.37,-21.84
545.584,366.0,306.464,-38.29,-29.19,-19.88
581.208,383.08,319.152,-38.57,-31.22,-17.5
619.272,406.016,349.896,-38.99,-33.25,-14.98
656.848,432.856,381.128,-39.48,-35.0,-13.02
687.592,461.16,406.504,-40.04,-36.4,-11.97
715.896,487.024,432.856,-40.67,-37.1,-12.11
737.368,517.768,457.744,-41.3,-36.96,-13.58
769.576,534.848,481.656,-42.07,-35.84,-17.36
819.84,532.896,504.104,-42.91,-34.09,-23.45
878.4,528.016,511.912,-44.03,-31.92,-30.94
920.856,543.144,513.376,-45.57,-29.47,-38.57
974.048,563.64,523.624,-47.32,-26.67,-44.59
1044.32,599.264,576.328,-49.21,-23.45,-47.53
1165.344,670.512,657.336,-51.03,-20.23,-47.25
1271.728,720.288,745.664,-52.43,-17.71,-44.31
1336.144,737.368,811.056,-53.69,-15.89,-40.11
1341.512,749.568,843.264,-54.81,-14.63,-36.75
1287.832,725.656,824.72,-55.65,-13.72,-35.91
1187.304,685.152,758.84,-56.14,-13.09,-39.97
1079.456,628.056,670.512,-56.49,-12.67,-49.7
988.688,566.568,591.456,-56.84,-12.46,-62.93
923.784,530.944,528.504,-57.47,-12.6,-75.81
885.232,488.976,468.48,-58.38,-13.02,-84.84
862.296,437.736,439.2,-59.71,-13.58,-87.78
850.096,411.384,432.856,-61.81,-14.49,-84.84
834.48,385.032,444.08,-64.12,-15.54,-78.05
808.128,375.76,442.616,-66.71,-16.8,-69.37
778.848,404.552,447.008,-68.88,-18.13,-60.48
753.96,430.416,441.64,-70.14,-19.32,-52.08
724.192,465.552,423.096,-70.42,-20.44,-44.8
679.784,484.584,406.016,-69.65,-21.28,-39.69
644.16,481.168,386.984,-68.04,-21.7,-37.73
609.024,450.912,370.88,-66.01,-21.84,-39.2
570.96,452.376,340.136,-63.91,-21.84,-43.89
506.544,415.288,359.656,-61.74,-21.63,-50.82
491.416,347.456,373.32,-59.85,-21.14,-58.17
495.808,372.344,383.568,-58.52,-20.44,-63.56
497.272,334.768,394.304,-57.05,-20.02,-67.34
439.2,276.208,424.56,-56.14,-19.32,-70.07
445.544,441.152,447.008,-55.51,-18.06,-70.84
436.272,374.784,439.2,-53.62,-16.8,-69.3
370.392,433.832,457.744,-51.59,-15.12,-66.08
323.056,447.984,467.504,-49.21,-12.88,-63.28
249.856,461.16,465.552,-46.76,-10.01,-61.53
229.36,447.496,446.52,-44.38,-6.37,-59.78
284.992,447.984,447.984,-42.14,-2.31,-56.91
324.032,422.12,428.464,-40.39,1.26,-53.76
358.68,463.6,498.248,-39.13,4.2,-52.01
391.376,459.208,539.728,-37.8,6.72,-51.59
355.752,453.84,575.352,-36.68,8.96,-51.17
253.272,462.624,597.312,-35.77,11.83,-49.42
