acc_x[mg],acc_y[mg],acc_z[mg],gyro_x[dps],gyro_y[dps],gyro_z[dps]
256.2,907.68,337.208,4.13,9.94,3.15
267.912,918.416,348.432,5.04,10.22,3.5
274.256,918.416,365.024,5.95,10.36,3.22
272.304,913.536,384.544,6.51,10.36,3.08
276.696,915.976,399.184,6.79,10.36,3.43
275.72,918.416,413.824,6.79,10.36,3.78
286.944,918.416,418.216,6.65,10.36,3.92
288.896,912.56,420.168,6.23,10.22,3.5
288.408,898.408,423.096,5.6,10.08,2.38
290.36,885.232,413.336,4.55,9.8,0.7
291.336,872.544,409.432,3.36,9.45,-1.4
290.848,863.76,405.528,2.03,9.1,-3.08
289.872,852.536,404.552,0.49,8.68,-4.34
286.456,842.776,400.16,-0.98,8.26,-5.6
289.384,838.384,388.936,-2.24,7.77,-7.14
289.384,837.408,377.224,-3.5,7.14,-8.26
283.528,834.48,369.904,-4.55,6.44,-8.26
283.528,838.384,366.976,-5.32,5.74,-7.14
294.264,850.584,362.096,-5.81,5.04,-5.32
293.776,861.808,362.584,-5.81,4.2,-3.22
287.92,874.496,364.536,-5.53,3.36,-1.12
287.432,884.256,359.168,-4.97,2.52,0.77
293.776,893.04,357.216,-4.2,1.61,2.31
292.312,900.36,358.68,-3.29,0.77,3.92
289.872,908.656,353.8,-2.17,-0.07,5.81
290.848,917.44,353.8,-1.05,-0.7,7.77
285.48,923.296,349.408,0.07,-1.19,9.38
285.48,925.736,342.576,1.12,-1.47,10.57
279.136,929.64,344.04,2.1,-1.61,11.2
275.72,928.176,339.648,3.01,-1.54,11.13
272.792,924.272,333.304,3.85,-1.33,10.08
269.864,919.392,331.84,4.48,-0.98,8.4
272.792,920.856,324.032,4.9,-0.42,6.65
276.208,915.976,315.736,5.25,0.07,4.97
275.232,912.072,315.248,5.46,0.56,3.78
279.624,915.976,313.784,5.6,1.05,3.22
283.04,915.976,310.368,5.74,1.4,3.15
282.552,915.488,306.952,6.09,1.54,3.15
284.504,915.488,307.928,6.37,1.47,3.08
288.408,911.584,306.464,6.72,1.26,3.01
291.336,905.24,307.928,6.79,0.91,3.08
295.24,905.728,309.392,6.93,0.42,3.36
300.608,903.776,311.344,6.79,-0.21,3.78
301.584,905.24,316.224,6.72,-0.98,4.27
302.072,902.312,315.248,6.58,-1.82,4.83
307.928,905.728,316.712,6.37,-2.66,5.6
305.488,900.36,325.008,6.09,-3.57,6.51
305.488,901.824,329.888,5.67,-4.34,7.7
302.072,901.336,338.184,5.11,-5.18,8.89
304.512,900.36,339.648,4.55,-5.88,9.31
302.072,894.992,338.184,3.85,-6.65,8.68
303.048,889.136,338.184,3.01,-7.42,7.42
301.096,885.72,333.792,2.24,-8.05,6.23
297.192,875.472,329.888,1.26,-8.54,5.53
295.728,868.152,327.448,0.35,-8.89,5.18
293.776,865.712,326.96,-0.63,-9.24,4.76
297.192,864.248,322.568,-1.68,-9.59,4.2
303.536,865.712,322.08,-2.59,-10.01,3.64
305.488,864.248,326.472,-3.71,-10.43,3.64
303.536,859.368,326.96,-4.69,-10.92,4.41
304.512,861.808,322.568,-5.81,-11.41,5.81
310.368,859.368,327.936,-7.07,-11.97,7.42
312.808,862.296,333.304,-8.47,-12.6,9.03
314.76,865.224,339.16,-9.8,-13.3,10.15
307.44,866.688,341.112,-11.2,-14.07,10.22
301.096,861.808,333.792,-12.53,-14.84,9.38
295.24,852.536,327.448,-14.14,-15.54,8.05
301.584,833.504,325.008,-16.1,-16.1,6.79
309.88,827.648,318.664,-18.34,-16.73,6.09
311.344,824.72,325.008,-20.86,-17.36,6.3
317.2,825.696,324.032,-23.38,-17.99,7.49
321.104,832.528,331.84,-25.76,-18.69,9.31
331.84,843.752,338.672,-27.93,-19.46,11.41
340.624,855.952,355.264,-29.82,-20.3,13.37
336.72,864.736,368.44,-31.29,-21.21,15.12
335.744,870.104,368.928,-32.55,-22.05,16.17
347.944,886.696,374.296,-33.46,-22.82,16.03
358.192,908.168,379.176,-33.88,-23.52,14.98
362.096,928.176,390.888,-33.67,-24.15,13.93
365.512,942.816,406.016,-32.9,-24.71,13.3
371.368,953.064,418.216,-31.5,-25.27,12.46
370.88,949.648,425.536,-29.68,-25.83,10.78
374.784,938.424,420.656,-27.79,-26.32,8.19
383.568,929.152,414.312,-25.9,-26.67,5.11
391.864,925.248,414.312,-24.01,-27.02,2.31
397.232,919.392,412.36,-22.12,-27.37,0.28
403.576,914.512,419.192,-20.16,-27.51,-0.7
401.624,904.264,418.704,-18.2,-27.72,-1.12
402.112,899.872,414.8,-16.31,-27.79,-1.05
391.864,889.136,403.576,-14.49,-27.79,-0.91
388.448,879.376,386.496,-12.88,-27.58,-1.33
386.008,868.64,377.224,-11.41,-27.16,-2.31
387.472,856.44,366.488,-10.08,-26.67,-3.29
384.544,846.68,365.024,-9.17,-25.9,-3.36
381.128,843.752,368.44,-8.4,-24.92,-2.45
382.592,836.432,361.12,-7.77,-23.87,-1.12
378.2,831.552,360.144,-7.35,-22.61,-0.21
379.176,825.696,359.656,-7.14,-21.42,-0.56
384.056,825.208,360.632,-6.93,-20.16,-1.75
390.888,820.328,368.928,-6.79,-18.97,-3.36
392.84,821.304,378.2,-6.79,-17.78,-4.62
395.768,822.768,383.568,-6.65,-16.73,-5.18
403.576,824.72,389.912,-6.51,-15.82,-5.46
407.968,829.112,394.304,-6.37,-15.05,-5.46
410.408,834.968,400.16,-6.02,-14.56,-5.46
407.48,833.992,401.136,-5.6,-14.14,-5.39
410.408,835.944,410.408,-5.04,-13.86,-5.32
410.896,841.312,417.24,-4.48,-13.72,-5.6
406.016,842.776,413.824,-3.85,-13.79,-6.23
409.432,836.432,415.776,-3.29,-13.86,-7.28
415.776,834.48,416.264,-2.73,-14.14,-8.75
412.36,826.184,409.432,-2.45,-14.49,-10.22
406.016,823.256,410.408,-2.24,-14.98,-10.92
408.944,815.936,414.312,-2.24,-15.54,-10.64
417.728,808.616,417.728,-2.24,-16.31,-9.66
422.608,806.176,432.856,-2.31,-17.29,-8.33
411.872,796.416,436.272,-2.73,-18.55,-7.14
409.432,799.344,429.44,-3.29,-19.81,-6.86
423.584,831.552,424.56,-3.85,-21.28,-8.05
408.944,819.352,440.664,-4.27,-22.82,-9.73
408.944,805.2,435.296,-4.83,-24.29,-11.34
400.648,803.248,422.12,-5.67,-25.55,-12.88
420.168,801.296,414.312,-6.65,-26.74,-14.49
427.976,807.152,394.792,-7.7,-27.93,-16.17
406.504,804.224,394.304,-8.75,-29.19,-16.73
372.344,790.072,386.008,-9.94,-30.17,-15.54
371.856,813.008,429.44,-11.2,-30.52,-12.32
398.696,816.912,386.984,-12.18,-31.01,-10.99
384.056,829.112,383.568,-13.09,-31.71,-12.81
370.88,832.04,393.816,-13.79,-32.27,-16.8
382.592,831.552,387.96,-14.56,-32.69,-22.89
402.6,839.848,367.952,-15.33,-33.32,-30.03
389.912,833.016,360.632,-16.03,-33.95,-36.61
375.76,830.088,381.616,-16.87,-34.44,-40.95
355.264,835.456,378.2,-17.78,-34.72,-43.26
351.848,862.784,379.176,-18.55,-34.86,-44.59
353.312,855.464,398.696,-19.25,-34.86,-46.48
375.272,877.912,328.912,-19.81,-35.14,-49.28
374.784,902.8,300.608,-20.09,-35.56,-52.01
362.096,882.304,324.032,-20.02,-35.91,-52.85
367.952,887.184,365.512,-19.95,-36.12,-50.68
366.0,877.424,331.84,-19.67,-36.33,-46.9
383.08,849.608,323.544,-19.25,-36.82,-41.51
375.76,849.608,349.408,-18.76,-37.59,-33.95
359.656,878.4,349.896,-17.78,-38.43,-24.57
364.048,924.76,336.232,-15.89,-39.34,-14.0
342.576,883.768,342.088,-13.16,-40.25,-2.17
340.136,856.44,360.144,-10.36,-40.95,11.06
295.728,806.176,381.616,-7.77,-41.51,24.85
203.496,684.664,446.52,-5.88,-41.44,37.03
195.2,692.472,495.808,-5.11,-40.81,42.21
474.824,735.416,464.088,-4.41,-41.44,36.75
346.968,687.104,440.176,-3.36,-44.38,27.3
389.424,752.496,440.664,-2.52,-46.48,21.28
365.024,751.032,453.352,-1.12,-48.51,21.49
369.416,758.352,437.248,0.35,-49.98,25.13
401.136,759.816,436.272,1.75,-51.45,27.09
386.008,762.256,428.464,2.8,-53.13,24.36
401.136,788.12,406.504,3.36,-54.81,16.59
386.496,778.36,400.648,3.5,-56.7,6.51
394.792,761.28,394.304,2.8,-58.59,-2.1
413.336,732.0,388.936,1.12,-60.76,-7.77
424.56,702.232,365.512,-1.89,-63.42,-10.29
432.856,680.272,350.872,-5.88,-66.36,-10.01
388.936,672.464,324.032,-11.2,-69.51,-7.28
314.272,669.048,300.12,-17.5,-72.1,-4.06
272.792,687.104,304.024,-24.78,-74.13,-3.57
212.28,700.28,292.8,-32.97,-75.6,-8.19
194.712,710.528,274.744,-41.86,-76.65,-17.92
197.152,770.552,294.264,-51.31,-77.63,-30.52
208.376,861.808,318.176,-60.41,-79.03,-43.05
183.0,975.512,395.768,-68.53,-80.71,-52.01
119.56,1104.832,464.576,-75.53,-82.04,-56.0
129.808,1158.024,537.776,-81.41,-82.88,-57.68
187.392,1228.784,597.312,-86.94,-83.58,-58.03
175.192,1280.512,681.248,-92.12,-84.35,-56.7
160.064,1347.368,732.976,-97.44,-84.91,-54.11
142.496,1417.152,766.16,-102.69,-85.05,-52.43
65.392,1484.984,810.08,-107.87,-84.7,-53.41
10.248,1518.656,811.544,-112.84,-83.51,-58.03
-58.56,1503.04,814.96,-118.72,-81.69,-66.71
-109.312,1452.776,809.592,-125.72,-79.31,-77.91
-163.48,1431.792,785.68,-134.12,-76.51,-90.3
-197.152,1403.976,764.208,-143.22,-73.22,-103.04
-238.144,1398.608,746.64,-152.88,-69.51,-114.45
-264.496,1392.752,745.664,-162.68,-65.31,-123.27
-282.552,1387.384,745.664,-172.34,-60.62,-128.87
-332.328,1363.96,737.856,-181.58,-55.58,-132.37
-286.944,1358.104,867.664,-190.4,-50.33,-136.01
-220.088,1298.568,888.648,-198.52,-45.85,-138.88
-223.504,1174.616,842.776,-206.5,-41.86,-138.88
-256.688,1112.64,825.208,-214.76,-37.24,-135.8
-246.44,1059.448,851.56,-222.81,-31.71,-128.94
-304.512,1021.384,817.4,-230.58,-25.41,-118.58
-316.224,973.56,826.184,-238.21,-17.99,-107.73
-316.712,963.8,849.608,-245.28,-10.29,-101.5
-325.984,995.032,881.328,-251.3,-3.08,-103.11
-307.44,993.568,933.056,-255.92,3.22,-113.54
-318.664,939.4,1004.304,-259.35,7.91,-133.56
-158.112,926.224,1108.248,-262.08,10.29,-160.3
-68.808,798.368,1100.44,-263.97,9.1,-184.94
0.0,719.8,1070.184,-265.72,5.88,-198.94
29.28,610.488,1089.216,-267.19,1.96,-198.73
40.016,507.032,1050.664,-268.45,-1.68,-187.11
35.624,414.312,1122.888,-269.5,-4.48,-167.93
25.376,400.16,1150.216,-270.13,-6.09,-145.18
-8.784,366.976,1178.52,-269.85,-6.65,-124.95
-10.736,312.808,1146.312,-269.29,-6.58,-114.17
6.832,259.128,1109.224,-268.8,-6.79,-116.48
40.992,218.136,1046.76,-268.17,-7.63,-128.38
108.824,187.392,991.128,-267.33,-9.52,-143.71
217.16,166.408,910.608,-266.0,-12.6,-158.13
299.632,94.672,875.472,-263.97,-16.94,-169.61
395.768,78.568,811.056,-261.45,-21.98,-175.35
476.288,46.848,754.936,-258.09,-27.3,-172.69
556.32,23.424,719.312,-253.68,-32.62,-160.86
579.744,42.456,669.536,-248.15,-37.45,-141.4
626.592,18.056,594.384,-241.22,-41.58,-119.56
707.6,-8.296,522.648,-233.38,-45.57,-102.34
762.744,-27.816,450.424,-224.77,-50.05,-91.84
797.392,-20.496,387.472,-215.25,-54.81,-85.96
819.352,-28.304,319.64,-204.68,-59.71,-82.95
865.224,-67.832,234.728,-193.34,-64.75,-82.04
928.176,-105.408,151.768,-181.51,-70.28,-82.32
962.824,-78.08,74.664,-169.05,-76.16,-81.55
995.032,-48.312,29.28,-155.54,-82.11,-78.61
1093.608,-45.384,-59.048,-141.26,-88.13,-75.74
1211.216,-20.984,-125.416,-126.35,-94.92,-73.99
1288.808,-13.664,-209.352,-110.81,-102.62,-71.47
1404.952,-7.808,-281.088,-94.64,-111.09,-67.62
1502.552,8.296,-354.288,-77.91,-120.75,-63.77
1574.776,53.192,-418.216,-60.62,-131.6,-59.85
1662.128,84.912,-488.488,-42.84,-143.57,-55.72
1752.408,105.408,-552.904,-24.99,-156.59,-51.87
1802.672,117.608,-593.896,-7.35,-170.31,-47.18
1877.824,160.552,-626.104,10.01,-184.24,-40.25
1969.568,240.096,-634.888,27.23,-198.87,-31.22
2092.544,358.192,-687.104,44.94,-214.9,-21.35
2247.728,483.12,-755.424,63.42,-233.17,-12.25
2330.2,558.76,-812.032,82.53,-253.82,-6.02
2471.72,574.864,-877.424,102.06,-276.22,-6.16
2565.904,595.36,-955.016,121.8,-299.95,-11.69
2632.76,778.848,-920.856,142.66,-323.89,-15.82
2678.144,847.168,-970.144,165.83,-347.9,-14.77
2672.776,852.048,-1026.752,190.19,-372.05,-10.64
2709.376,1031.632,-1012.6,215.53,-396.76,-6.02
2709.376,1225.856,-974.536,244.09,-422.52,-3.01
2778.672,1612.352,-959.408,276.85,-448.7,-4.41
2927.024,1916.864,-1127.28,317.24,-475.16,-14.21
3141.256,2510.272,-935.984,367.43,-501.48,-24.99
3517.992,3251.544,-681.248,432.53,-528.71,-28.98
4183.624,4142.144,-370.392,513.8,-559.37,-37.17
4860.48,5233.8,-383.568,611.66,-594.37,-53.48
5124.488,5952.136,-511.424,722.82,-630.21,-63.0
4650.152,6602.64,-574.864,838.25,-661.01,-51.66
3981.104,7697.224,-70.76,951.23,-684.18,-10.92
3580.944,7885.104,438.224,1054.9,-705.39,37.24
2431.216,5975.56,1983.232,1112.09,-724.85,52.43
2808.928,2576.64,-2855.288,699.65,-662.13,-172.48
1681.16,3893.264,459.208,493.36,-666.82,-168.28
3949.872,3800.544,104.92,580.23,-672.07,-46.9
3345.24,3982.568,29.28,704.13,-682.78,30.8
3187.128,2870.416,23.912,697.76,-677.46,78.05
3482.856,1759.728,-222.528,659.4,-670.25,97.72
3395.992,862.296,-504.592,596.68,-659.33,117.46
3237.88,151.28,-512.4,514.5,-642.46,155.89
2390.224,-178.12,-476.288,420.84,-618.87,191.24
1769.0,-163.968,-627.08,327.25,-584.08,187.81
1762.656,-87.84,-527.528,244.51,-540.75,141.89
1730.936,132.248,-569.984,180.46,-496.09,74.13
1970.544,172.752,-581.208,136.15,-452.69,14.91
2016.904,216.672,-485.072,108.29,-414.33,-27.58
1981.768,186.416,-369.904,91.28,-380.1,-47.88
1837.32,53.192,-384.544,80.64,-348.18,-45.29
1495.72,-65.88,-390.4,71.96,-316.96,-23.66
1282.464,-128.344,-502.64,63.0,-284.97,5.53
1317.6,-176.168,-514.84,54.32,-255.22,18.34
1341.024,-165.432,-516.792,47.32,-230.02,3.43
1359.08,-214.72,-452.864,43.68,-208.67,-25.9
1284.416,-386.496,-446.52,42.42,-189.42,-49.63
1119.96,-524.6,-450.424,42.14,-170.66,-55.37
911.584,-642.696,-439.688,42.07,-151.34,-44.66
821.304,-647.088,-323.056,42.35,-132.02,-29.54
752.008,-679.296,-296.216,43.61,-114.24,-21.56
630.984,-715.896,-285.968,46.13,-97.86,-23.38
569.008,-784.704,-295.24,49.07,-82.32,-33.81
469.456,-837.408,-324.032,52.15,-67.62,-53.2
401.624,-900.36,-294.752,55.3,-53.13,-79.59
366.0,-980.88,-357.704,58.03,-38.71,-110.25
354.288,-1035.536,-380.152,60.2,-24.5,-142.03
339.16,-1104.832,-363.56,61.67,-10.29,-170.03
350.384,-1085.8,-380.152,62.37,4.06,-190.47
362.096,-1118.984,-427.976,62.65,17.99,-204.05
420.168,-1159.488,-351.36,62.23,31.29,-216.16
477.264,-1209.752,-269.376,60.9,43.33,-231.91
508.008,-1193.648,-248.88,58.73,54.46,-251.02
546.072,-1150.704,-206.424,56.28,65.17,-270.27
611.464,-1074.088,-218.624,53.9,75.67,-286.72
696.376,-1044.808,-234.728,51.59,85.82,-298.97
807.152,-1047.736,-195.688,49.0,95.34,-305.13
933.544,-1024.8,-78.568,45.92,103.67,-303.03
1059.448,-990.152,-65.392,42.63,110.46,-294.07
1147.288,-938.912,-88.816,39.34,115.5,-281.33
1190.72,-872.544,-54.168,36.4,118.86,-266.49
1207.8,-739.32,9.272,34.02,121.03,-248.99
1173.64,-860.344,112.24,32.48,122.29,-230.72
1213.168,-711.992,213.744,30.24,122.64,-219.59
1198.528,-710.04,270.352,28.56,121.59,-214.13
1159.488,-683.2,222.04,26.18,120.05,-211.4
1138.992,-656.36,247.904,23.1,117.95,-215.11
1089.216,-587.552,354.776,19.46,115.29,-225.26
1042.856,-475.312,350.872,15.89,112.28,-238.98
1027.24,-388.936,345.504,12.81,108.99,-254.45
1054.568,-326.96,379.176,10.01,105.28,-270.55
1112.64,-304.512,374.784,7.14,100.8,-285.74
1121.912,-261.568,352.824,3.99,95.41,-298.13
1065.304,-213.744,363.072,0.98,89.81,-306.11
986.736,-151.28,385.52,-1.68,84.63,-309.47
902.312,-75.64,381.616,-3.64,80.15,-308.56
821.792,-17.568,372.832,-4.76,76.65,-304.15
801.784,24.4,367.464,-5.25,73.78,-298.83
842.288,54.656,367.464,-5.53,70.7,-295.82
929.64,120.536,413.336,-6.51,67.41,-297.57
778.36,70.272,446.52,-9.1,63.91,-306.39
775.432,166.896,417.728,-14.07,60.97,-319.06
796.416,199.592,401.136,-19.32,57.61,-328.93
777.872,195.688,393.816,-24.57,54.46,-332.71
835.456,236.192,379.664,-29.4,51.8,-328.86
884.256,229.36,402.112,-33.11,48.86,-318.85
917.44,236.192,409.92,-35.98,45.78,-304.15
914.024,247.904,397.232,-38.01,42.63,-287.42
884.256,266.936,392.84,-39.27,39.41,-271.81
783.24,273.768,403.088,-39.69,35.77,-259.35
637.816,454.816,395.28,-39.97,30.94,-248.78
581.696,508.984,340.136,-39.55,24.29,-235.27
594.872,495.808,359.168,-39.62,16.24,-228.34
674.416,484.584,389.912,-39.62,7.98,-233.24
753.472,507.52,429.928,-38.78,0.0,-244.79
797.88,526.064,459.208,-36.33,-7.42,-255.08
859.856,651.968,590.48,-33.39,-14.42,-258.02
975.512,513.864,739.808,-32.13,-21.35,-234.64
937.936,365.024,719.312,-33.6,-28.84,-193.34
928.176,545.096,644.16,-33.18,-35.7,-163.45
887.184,606.584,604.632,-30.1,-41.86,-139.37
796.904,576.328,634.4,-27.16,-47.39,-115.71
698.816,602.68,648.064,-24.78,-52.08,-95.97
633.424,647.576,668.56,-22.19,-56.21,-84.91
593.408,675.392,676.368,-19.32,-60.41,-83.51
540.704,681.248,667.584,-16.52,-65.03,-88.62
504.104,668.072,668.56,-14.07,-69.65,-96.81
532.408,612.928,678.32,-12.39,-74.27,-105.28
555.344,583.648,666.12,-11.9,-79.17,-111.72
583.648,502.64,636.352,-12.25,-84.07,-115.15
588.528,459.208,606.584,-13.37,-88.9,-117.6
506.056,535.336,569.008,-14.28,-93.24,-119.84
347.456,534.848,549.976,-14.56,-96.25,-120.12
314.76,542.656,538.752,-14.7,-97.37,-120.26
334.28,559.736,502.152,-14.49,-98.0,-122.99
377.224,613.416,500.688,-13.72,-98.77,-129.57
403.088,648.064,531.432,-12.32,-99.75,-139.3
389.912,608.048,536.8,-10.92,-100.66,-150.5
356.728,538.264,531.92,-10.57,-101.01,-160.79
309.88,475.8,499.712,-11.62,-100.73,-169.54
229.848,466.04,462.136,-13.86,-99.89,-176.61
154.696,563.152,471.408,-16.31,-98.35,-182.21
67.832,603.656,506.544,-17.85,-96.32,-186.9
61.488,640.744,474.336,-18.55,-94.29,-190.47
170.8,695.4,441.152,-18.55,-93.59,-191.52
300.12,635.376,442.128,-18.13,-94.92,-188.09
264.496,513.864,534.848,-18.41,-97.58,-176.68
273.28,549.0,508.496,-19.88,-99.54,-156.31
218.624,526.552,541.192,-21.28,-100.8,-129.5
82.96,599.264,566.08,-22.89,-100.59,-99.89
121.024,615.368,569.496,-24.22,-98.56,-72.73
206.424,613.904,548.024,-25.9,-96.67,-50.68
268.4,707.6,549.488,-27.86,-96.18,-34.09
263.032,815.936,592.432,-28.63,-97.02,-23.17
167.872,894.016,619.272,-28.07,-98.49,-17.36
153.72,990.152,618.784,-25.76,-99.61,-15.12
28.792,985.272,609.512,-21.77,-100.52,-14.49
-106.384,1007.232,630.008,-17.29,-99.89,-14.35
-76.616,1011.136,573.888,-11.76,-97.79,-15.68
-49.288,967.704,566.568,-6.3,-95.41,-17.85
-52.704,1031.632,598.776,-0.98,-92.68,-19.04
-83.936,1087.264,591.456,4.48,-89.11,-18.69
-14.152,1077.504,571.448,9.38,-84.77,-16.94
29.768,1060.912,558.76,12.67,-80.92,-13.02
25.864,1057.984,556.32,14.28,-77.07,-6.37
14.152,1103.368,564.128,14.49,-73.22,-0.28
-45.872,1099.952,540.704,13.79,-69.65,2.24
-67.344,1033.584,447.008,11.69,-66.29,1.47
-93.208,992.592,377.224,7.28,-63.56,-1.75
-168.848,990.152,318.664,1.47,-61.67,-7.28
-179.584,1130.208,236.192,-4.76,-60.97,-15.82
-204.472,1148.752,119.072,-9.87,-62.51,-25.34
-103.944,1090.68,156.648,-14.56,-66.01,-31.22
-1.464,1074.088,134.2,-19.46,-71.89,-33.95
17.08,1094.584,191.296,-24.01,-78.89,-31.85
-35.624,1164.368,243.512,-28.0,-85.05,-22.05
-47.824,1249.768,214.72,-30.59,-89.39,-4.55
-111.264,1187.792,295.728,-32.62,-92.4,17.92
-219.112,1136.064,295.24,-35.7,-94.22,39.34
-515.816,1209.264,401.624,-39.69,-94.92,51.24
-90.28,1335.168,589.504,-43.61,-95.62,42.84
-146.4,1349.808,459.696,-47.53,-100.38,19.81
-88.328,1367.376,481.168,-52.36,-105.28,-3.78
-86.376,1364.936,508.008,-58.1,-110.18,-18.55
-152.256,1338.096,489.464,-64.89,-113.68,-24.5
-167.872,1317.6,464.576,-72.8,-115.5,-29.68
-227.896,1298.568,467.992,-81.62,-115.92,-38.99
-258.64,1243.912,454.328,-91.42,-114.87,-51.59
-226.432,1207.312,501.176,-102.41,-112.63,-65.45
-226.92,1189.744,538.752,-114.31,-109.9,-76.16
-184.464,1165.832,567.544,-126.56,-106.75,-81.9
-120.048,1138.016,589.992,-138.88,-103.67,-84.91
-56.608,1121.424,623.664,-150.64,-100.94,-86.66
3.416,1123.376,663.68,-161.21,-98.42,-86.87
13.664,1160.952,705.648,-170.31,-96.18,-85.82
-23.424,1217.072,761.28,-178.08,-94.64,-87.99
-8.296,1240.496,818.376,-185.08,-94.22,-97.79
-53.68,1236.104,879.376,-191.38,-94.15,-110.95
-64.904,1220.488,920.856,-197.12,-93.59,-124.53
-60.512,1163.88,933.544,-202.37,-92.75,-138.11
-40.504,1069.696,918.904,-207.48,-91.84,-150.29
-8.296,996.008,949.648,-212.73,-91.14,-158.2
-21.472,983.808,976.976,-217.98,-90.37,-160.93
-50.752,897.92,974.048,-223.23,-88.97,-160.09
-48.8,784.216,1014.552,-229.04,-86.73,-157.36
-24.888,660.752,1097.024,-235.97,-83.86,-151.83
-7.808,610.488,1076.528,-243.6,-80.71,-142.87
-52.216,506.544,1312.232,-251.65,-77.35,-132.72
-43.432,470.92,1334.68,-260.96,-73.57,-126.84
-45.384,383.08,1357.128,-271.53,-70.7,-135.45
-6.832,308.416,1331.752,-283.5,-69.37,-157.08
107.848,204.96,1338.096,-296.45,-70.28,-183.26
215.696,145.424,1348.832,-310.24,-73.78,-203.63
408.944,94.672,1341.512,-323.75,-79.66,-213.15
602.68,60.024,1357.128,-336.63,-87.85,-211.75
802.272,25.864,1311.744,-348.18,-97.72,-199.92
939.888,-73.2,1350.784,-357.77,-108.36,-178.85
982.344,-40.992,1354.2,-365.26,-118.3,-151.76
1025.288,-79.056,1286.856,-369.32,-126.56,-126.0
1028.704,-47.824,1202.432,-370.23,-133.35,-108.43
1026.752,9.272,1068.232,-367.08,-138.74,-99.61
1049.688,40.992,1000.888,-359.66,-142.94,-95.2
1058.472,100.528,949.16,-348.46,-146.16,-89.74
1080.432,102.48,845.704,-333.34,-148.26,-81.34
1099.952,107.848,755.424,-315.42,-149.31,-70.35
1090.192,61.0,624.64,-295.4,-149.17,-56.42
1043.832,20.984,516.304,-274.12,-147.35,-40.32
1044.32,-10.736,383.568,-252.0,-144.27,-25.55
1027.24,-3.416,270.84,-229.25,-140.84,-15.47
1048.712,-21.472,133.712,-205.59,-137.62,-10.43
1108.248,-58.56,-22.448,-181.72,-135.38,-9.87
1176.08,-75.64,-167.872,-157.71,-134.54,-11.13
1319.064,-70.272,-328.424,-133.35,-135.52,-11.76
1496.696,-38.552,-475.8,-108.29,-139.16,-11.83
1702.632,10.248,-612.44,-81.97,-145.95,-10.29
1883.192,58.56,-684.664,-54.39,-156.03,-6.02
2092.544,124.928,-714.92,-25.9,-168.84,1.68
2282.376,163.968,-818.864,3.22,-184.03,11.41
2457.08,318.664,-958.432,32.97,-201.32,23.73
2649.84,431.88,-1122.888,64.61,-220.43,38.57
2828.936,604.144,-1187.304,98.63,-242.27,53.76
2933.856,831.552,-1252.696,136.5,-267.05,68.88
2998.76,1127.28,-1317.6,179.62,-294.42,85.47
3063.664,1573.8,-1290.76,228.97,-324.17,101.01
3180.784,1850.496,-1508.408,285.39,-356.09,110.81
3439.424,2760.128,-1421.544,350.0,-389.97,115.43
3686.352,3756.624,-1446.432,428.12,-426.58,122.99
3923.52,4819.488,-1422.032,520.87,-466.48,136.5
3794.2,5710.576,-1367.376,625.31,-509.88,154.14
3461.872,6476.736,-825.208,737.24,-554.96,173.67
3082.696,7522.032,264.008,851.97,-601.09,191.94
3028.528,8929.424,2066.68,969.36,-650.02,207.2
3844.464,9624.824,3610.712,1084.58,-707.21,207.27
4840.472,8914.296,4539.864,1176.98,-776.65,210.28
8538.048,1748.504,2322.88,1098.86,-839.3,417.62
1985.672,6309.352,2165.256,317.03,-922.04,1454.53
-1842.688,7461.032,347.944,102.48,-1012.83,419.58
-576.816,5008.344,666.12,212.24,-1010.73,-702.66
1845.128,2875.784,691.496,392.49,-917.07,-837.06
3374.032,2466.84,814.96,495.6,-804.51,-361.41
3240.808,2531.256,704.184,501.69,-745.71,110.25
2691.32,2283.352,-27.328,450.66,-728.21,223.23
2009.096,1454.24,-699.792,393.61,-709.66,14.77
2378.512,426.024,-723.704,349.72,-666.75,-218.33
2783.064,-372.344,-570.96,307.37,-611.17,-257.81
2720.112,-431.392,-496.784,251.44,-557.48,-136.92
2565.416,-252.784,-248.88,185.29,-512.47,-7.42
2031.056,14.64,-278.16,122.01,-473.41,42.91
1775.344,165.92,-265.472,71.82,-434.21,23.1
1805.6,217.16,-169.336,38.85,-396.27,-37.45
1686.04,244.0,-204.472,20.23,-360.43,-95.69
1623.088,-2.44,-453.84,10.99,-324.87,-132.65
1420.568,-32.208,-596.824,5.46,-288.89,-146.86
1296.616,-105.408,-552.416,2.38,-252.0,-140.63
1042.856,12.688,-458.72,2.1,-215.25,-127.05
968.192,67.832,-441.152,5.53,-179.06,-115.15
919.392,142.496,-514.84,12.53,-145.74,-114.03
937.936,92.72,-598.288,21.63,-115.92,-123.27
1008.696,-28.304,-630.496,30.45,-89.81,-140.56
1118.496,-128.344,-612.928,37.59,-67.13,-158.27
1243.424,-300.608,-603.168,42.28,-47.67,-166.25
1294.664,-390.888,-626.592,44.38,-31.22,-158.55
1321.016,-478.728,-662.216,45.08,-17.29,-135.03
1317.6,-462.624,-661.728,45.22,-6.09,-104.58
1368.352,-423.096,-575.352,46.2,1.75,-77.77
1354.688,-318.664,-498.248,48.93,6.02,-61.74
1281.976,-247.904,-497.272,53.9,7.84,-55.09
1167.784,-178.608,-509.96,61.18,8.82,-53.48
1094.096,-103.944,-525.088,70.35,9.52,-55.72
1032.12,-88.328,-598.288,81.2,10.01,-60.9
982.832,-132.248,-691.984,92.75,10.5,-66.99
934.032,-204.96,-739.32,103.88,11.34,-72.45
917.44,-205.936,-763.232,114.59,12.81,-75.95
878.4,-248.392,-846.192,125.02,14.84,-76.09
813.008,-288.408,-942.816,134.75,17.92,-73.57
762.744,-347.456,-1048.224,143.57,21.91,-71.96
682.712,-369.904,-1084.336,151.69,27.16,-75.04
614.392,-399.184,-1050.176,159.39,33.95,-83.16
495.808,-436.272,-1056.032,166.46,42.84,-92.82
414.8,-524.6,-1058.96,172.41,54.25,-101.99
403.576,-625.616,-1063.352,176.33,67.62,-111.93
358.68,-691.008,-1051.152,177.8,82.18,-122.85
331.84,-782.752,-998.936,176.75,98.0,-133.49
347.944,-848.144,-960.384,172.83,114.1,-145.95
387.96,-878.888,-860.344,166.11,129.64,-162.82
413.824,-994.544,-807.64,156.73,144.34,-181.93
495.32,-993.568,-753.472,144.34,157.85,-204.19
587.552,-969.168,-540.704,129.99,169.47,-230.58
653.432,-910.12,-378.688,114.31,179.13,-257.25
709.064,-764.208,-275.72,97.86,186.9,-282.8
781.776,-622.2,-139.568,81.55,192.71,-307.09
840.824,-477.752,-21.472,65.52,196.28,-329.7
892.064,-313.784,64.904,50.05,197.89,-351.05
933.544,-195.688,132.248,35.07,197.54,-371.21
977.952,6.832,281.576,20.02,195.16,-388.78
1016.992,26.84,251.32,4.55,190.61,-395.71
1137.528,215.208,122.0,-11.34,183.12,-400.33
1067.256,164.456,132.736,-25.55,173.32,-407.12
1020.896,271.816,186.416,-39.13,162.68,-412.09
961.36,377.712,174.704,-51.45,152.25,-418.11
909.632,447.496,147.864,-63.14,141.61,-424.69
880.84,479.216,161.04,-73.64,130.41,-430.5
811.056,515.816,170.8,-82.88,118.51,-434.35
778.36,566.568,184.952,-90.79,106.12,-435.54
776.408,586.088,148.352,-97.3,93.45,-434.35
794.952,575.84,89.792,-102.48,80.71,-431.62
821.792,568.52,48.312,-106.4,68.18,-426.58
823.744,586.576,69.296,-108.92,56.07,-417.83
776.896,581.696,131.272,-110.11,44.52,-405.23
710.528,528.504,117.608,-110.67,33.81,-390.18
670.024,527.04,71.248,-111.09,24.01,-373.87
633.424,537.776,49.288,-110.88,14.63,-357.35
632.936,558.76,82.472,-109.9,5.95,-341.67
678.32,550.952,146.4,-107.87,-1.82,-326.9
686.616,569.984,166.896,-105.07,-8.61,-311.85
761.768,607.56,206.912,-101.57,-14.35,-295.33
788.12,610.976,303.536,-97.93,-19.46,-276.08
842.776,662.216,410.896,-94.57,-24.15,-253.54
873.032,682.224,500.2,-91.14,-28.56,-229.18
903.288,765.672,602.192,-87.71,-32.76,-204.82
893.528,847.656,712.48,-84.0,-36.82,-181.23
828.136,874.984,800.808,-80.43,-41.02,-158.69
748.592,899.872,861.32,-77.49,-45.01,-137.62
693.936,907.68,878.888,-74.97,-48.93,-119.35
676.856,899.872,906.704,-72.87,-52.78,-104.51
672.952,922.808,949.16,-70.77,-56.42,-92.75
686.128,971.12,986.736,-68.11,-59.64,-84.14
702.72,1033.584,1024.8,-64.26,-62.72,-79.66
666.12,1063.352,1052.616,-59.22,-65.66,-79.73
635.376,1040.904,1068.72,-53.55,-68.11,-83.44
625.616,1029.68,1075.064,-47.88,-70.07,-88.69
610.976,1007.72,1069.208,-42.35,-71.68,-93.87
601.704,958.92,1037.488,-37.1,-72.87,-98.14
554.856,894.992,1002.84,-32.34,-73.71,-100.8
457.744,895.48,986.736,-27.93,-73.99,-102.06
407.968,926.712,998.448,-23.52,-73.5,-102.76
352.824,895.968,950.136,-18.83,-72.66,-103.46
339.16,883.28,906.704,-14.49,-71.47,-103.46
442.616,897.92,856.44,-10.01,-70.35,-101.78
394.792,716.384,865.224,-5.53,-69.86,-96.32
408.456,575.84,829.6,-2.66,-69.37,-88.55
379.176,331.84,871.08,-1.89,-69.16,-82.32
379.176,366.976,835.456,-3.36,-69.86,-78.89
341.112,472.384,733.952,-4.41,-71.68,-77.7
239.608,548.024,774.456,-3.64,-73.64,-77.77
205.936,471.896,765.184,-1.47,-75.32,-79.73
273.768,510.448,746.64,1.12,-77.14,-83.44
481.656,552.904,702.232,4.97,-80.5,-88.13
543.144,532.896,630.496,10.08,-86.45,-91.91
434.808,545.584,602.68,16.59,-93.59,-91.63
260.104,477.752,602.192,24.22,-99.33,-85.54
225.456,639.28,570.472,32.97,-103.04,-74.97
161.528,581.208,572.912,43.89,-105.63,-62.79
157.624,497.272,535.336,54.25,-106.75,-49.98
182.024,608.048,517.28,63.42,-106.96,-38.85
283.528,485.56,465.552,71.75,-107.17,-34.16
220.088,238.632,379.664,76.02,-107.59,-32.55
175.68,389.912,322.568,75.95,-106.82,-27.79
136.152,418.216,364.536,74.2,-104.51,-14.35
116.632,481.656,344.528,70.56,-101.71,4.69
57.096,535.824,345.016,65.59,-99.75,16.1
20.008,589.016,345.504,58.66,-98.98,17.22
38.552,671.0,310.856,49.98,-99.19,12.32
17.568,774.456,302.56,40.46,-100.03,3.15
10.248,872.056,259.128,31.22,-101.01,-10.64
61.976,972.096,231.8,22.96,-101.78,-27.65
145.424,1094.584,278.648,15.89,-101.85,-42.21
190.808,1198.04,346.968,9.94,-101.08,-46.69
96.136,1249.768,410.896,4.41,-99.47,-37.94
-103.944,1301.008,477.264,-1.4,-97.02,-21.21
-279.136,1420.08,460.184,-7.07,-94.15,-7.42
-370.392,1459.12,416.264,-11.76,-91.42,-5.11
-382.592,1456.192,372.344,-15.89,-89.6,-16.45
-324.52,1484.984,322.08,-19.74,-88.62,-35.56
-369.904,1419.104,368.928,-23.03,-87.71,-52.08
-320.128,1423.008,462.624,-26.46,-85.82,-59.29
-339.16,1428.376,495.808,-29.89,-83.79,-57.89
-378.2,1433.744,528.016,-33.39,-81.41,-52.08
-392.84,1387.872,518.744,-37.94,-78.75,-47.74
-403.576,1378.6,515.328,-43.68,-76.51,-49.42
-443.104,1352.736,525.088,-50.05,-75.11,-59.5
-470.432,1307.352,582.184,-56.7,-74.69,-77.21
-484.096,1301.984,599.752,-63.0,-75.11,-98.56
-361.608,1269.288,614.392,-68.53,-76.58,-115.43
-355.752,1253.672,531.432,-73.36,-79.17,-120.26
-324.032,1206.336,553.392,-77.77,-81.97,-112.63
-314.76,1221.952,565.592,-82.39,-85.12,-96.95
-356.24,1245.864,590.968,-87.22,-88.62,-83.37
-399.672,1273.192,587.064,-92.33,-92.4,-79.8
-394.304,1264.408,573.888,-98.14,-96.46,-87.08
-419.192,1196.088,598.776,-105.35,-101.01,-100.24
-398.696,1120.936,606.096,-114.1,-105.28,-113.61
-408.456,1056.52,632.448,-124.39,-108.78,-124.18
-401.136,977.464,666.12,-135.52,-110.6,-129.22
-411.384,932.568,684.176,-147.63,-111.09,-130.06
-386.496,873.032,730.536,-159.95,-110.46,-128.38
-371.856,883.28,802.76,-172.76,-109.06,-122.92
-455.792,885.232,842.288,-185.78,-107.03,-119.28
-471.408,866.688,917.928,-199.43,-105.56,-126.56
-499.224,880.84,967.704,-213.08,-105.42,-141.89
-486.536,847.168,1020.896,-225.68,-105.35,-157.57
-486.536,807.64,1048.712,-237.23,-104.86,-169.75
-441.152,747.616,1096.048,-247.52,-103.53,-178.64
-422.608,749.568,1165.344,-256.83,-101.5,-186.62
-397.72,766.16,1218.048,-264.6,-98.84,-194.81
-315.736,767.136,1288.32,-270.9,-95.62,-203.56
-219.6,740.296,1319.552,-275.87,-92.68,-212.45
-114.68,703.696,1324.92,-279.86,-90.3,-219.31
-63.928,655.872,1379.576,-283.01,-88.41,-222.88
-27.328,615.368,1370.304,-286.3,-86.59,-227.22
48.312,553.392,1317.6,-289.87,-85.68,-238.0
209.84,488.976,1276.12,-294.07,-86.38,-249.97
392.352,397.72,1195.6,-298.13,-88.97,-251.02
577.792,264.496,1114.104,-301.98,-92.75,-236.18
720.776,216.672,1000.888,-305.97,-97.58,-213.64
905.24,195.688,841.8,-309.33,-103.81,-195.93
1087.752,295.24,676.856,-311.36,-112.49,-189.49
1346.392,287.92,435.784,-310.45,-124.04,-190.47
1501.576,322.568,358.192,-305.83,-137.83,-183.47
1593.808,315.736,245.464,-297.29,-151.27,-158.27
1686.04,312.32,128.832,-284.83,-163.59,-126.0
1716.296,366.0,4.392,-268.87,-175.35,-101.15
1799.256,490.44,-129.32,-248.99,-187.25,-90.02
1936.384,635.864,-314.272,-224.7,-200.2,-91.63
2134.024,764.208,-561.688,-195.65,-214.83,-98.56
2363.384,809.592,-783.24,-162.33,-230.86,-99.26
2589.328,904.264,-940.864,-125.3,-247.8,-85.33
2841.136,965.752,-1085.312,-84.77,-265.72,-59.22
3053.904,1141.432,-1186.816,-41.44,-285.6,-31.85
3273.504,1348.344,-1304.912,5.11,-308.07,-11.83
3437.472,1550.864,-1410.32,54.88,-333.34,-0.63
3626.328,1716.784,-1504.504,107.45,-361.06,6.65
3667.808,1898.32,-1460.096,162.12,-390.81,20.37
3616.568,2202.832,-1322.968,218.33,-421.54,47.46
3467.24,2318.976,-1248.792,275.31,-453.46,79.31
3222.752,2690.832,-874.984,332.36,-486.5,103.39
3005.592,2803.56,-631.96,390.39,-519.61,105.35
3410.632,3003.64,-475.312,450.03,-551.88,74.48
4267.56,3267.648,-356.24,515.34,-585.69,23.94
5370.928,3781.024,-120.048,590.73,-620.76,-9.31
5725.216,4778.984,196.664,678.86,-657.37,0.14
5825.744,6037.048,662.216,780.36,-692.51,44.03
5619.808,7747.976,1738.256,894.74,-728.84,86.45
5620.784,8467.288,3395.504,1015.35,-768.81,126.91
5531.968,7959.28,5629.08,1119.79,-817.11,179.13
5227.456,2185.752,-310.856,718.41,-756.21,606.55
1438.624,4878.048,-355.264,336.91,-574.98,535.29
2105.232,5265.52,2880.664,474.04,-689.08,-204.33
2055.456,2308.728,1659.688,618.94,-843.36,-456.68
3450.16,2245.776,658.8,682.57,-818.93,-223.16
2481.48,2024.224,347.944,664.58,-770.07,64.19
1891.488,1812.92,103.944,599.34,-735.07,129.22
1361.52,1425.936,-132.248,531.37,-688.73,9.03
878.4,1093.12,62.952,476.21,-618.8,-106.47
912.56,699.792,193.736,426.16,-531.02,-119.77
1037.488,449.936,23.424,374.36,-443.38,-76.51
1123.864,324.52,-383.08,320.25,-363.65,-25.97
1331.264,475.312,-681.248,270.69,-294.0,6.58
1504.504,662.216,-589.016,233.59,-235.9,15.33
1383.968,874.984,-172.264,210.91,-187.46,0.77
1078.48,871.568,110.288,200.83,-144.41,-35.77
1145.336,742.736,126.88,197.05,-103.39,-88.62
1366.4,461.16,-21.472,193.83,-66.57,-141.19
1531.832,217.648,-158.6,188.51,-34.51,-166.6
1476.2,29.28,-120.536,181.79,-7.07,-155.19
1258.552,-83.448,-27.328,175.07,16.31,-119.91
1001.376,-114.68,28.792,169.82,35.98,-87.64
804.224,-107.36,151.28,166.6,52.22,-76.86
769.576,-75.64,249.368,164.71,64.89,-90.58
869.616,-169.824,194.224,163.1,73.57,-124.32
998.448,-274.256,200.08,160.23,78.61,-169.89
1173.152,-403.088,282.064,155.4,81.06,-212.17
1270.264,-552.904,271.328,148.82,82.04,-236.18
1304.424,-693.936,270.84,140.56,82.32,-239.61
1276.12,-758.352,173.24,130.9,82.32,-233.1
1201.944,-754.448,135.176,120.82,82.46,-227.36
1129.232,-734.44,138.104,111.3,83.3,-226.52
1076.528,-634.888,164.944,103.11,84.77,-231.35
1050.664,-592.92,230.824,96.95,86.73,-237.86
1080.92,-543.632,293.288,92.12,88.9,-243.18
1164.856,-491.416,326.472,87.99,90.3,-249.06
1208.776,-427.976,314.272,84.07,90.65,-259.63
1205.36,-330.864,354.776,80.22,90.23,-274.82
1157.536,-274.256,420.656,76.51,89.95,-291.06
1103.856,-234.24,515.328,72.8,90.23,-304.22
1060.424,-212.768,550.952,68.25,91.28,-313.11
1089.704,-163.48,513.376,63.0,92.47,-322.49
1148.752,-137.616,516.304,56.84,92.75,-337.26
1185.84,-47.336,509.472,49.77,91.91,-356.65
1250.744,30.256,525.576,42.56,90.3,-375.06
1285.392,75.152,549.0,35.63,87.85,-386.61
1239.52,171.288,575.352,28.77,84.91,-388.01
1202.432,120.048,630.496,22.68,82.25,-378.91
1223.904,186.904,590.48,16.45,79.45,-368.34
1218.048,249.856,569.008,11.13,75.67,-361.55
1189.744,270.352,635.376,6.51,71.61,-352.38
1204.872,292.312,611.952,2.45,67.41,-338.52
1203.408,313.784,651.968,-1.05,62.93,-320.74
1203.408,323.056,650.016,-3.92,58.24,-299.88
1130.208,355.264,664.656,-6.16,53.48,-277.41
1097.512,394.792,697.84,-7.49,49.0,-256.41
1123.864,467.504,710.04,-7.7,44.31,-240.1
1168.272,511.912,772.016,-6.58,38.57,-229.25
1196.088,554.368,831.064,-4.41,31.71,-222.32
1148.264,558.76,898.408,-1.12,24.15,-216.72
1075.064,566.568,928.664,3.08,16.59,-210.56
1014.064,547.048,910.12,7.98,9.38,-203.7
940.376,499.712,905.24,13.3,2.8,-195.02
888.16,563.152,911.096,18.34,-3.15,-184.31
807.64,538.752,894.016,23.17,-8.82,-176.05
806.664,588.528,899.872,27.58,-14.14,-168.91
782.752,581.208,916.464,32.27,-19.39,-161.84
699.792,608.048,895.48,36.68,-24.57,-155.96
627.568,605.12,877.424,41.09,-29.54,-154.56
636.352,627.568,882.304,45.71,-34.44,-155.82
658.8,663.68,854.976,50.89,-40.18,-155.54
654.408,582.672,837.408,56.21,-46.9,-152.6
644.16,567.544,823.744,60.83,-53.2,-153.44
725.168,629.032,805.688,65.59,-58.8,-156.03
783.24,636.352,831.552,71.05,-63.91,-156.31
699.792,569.984,867.176,76.3,-67.9,-150.99
612.44,532.896,885.232,80.29,-69.93,-140.98
571.448,546.56,839.36,83.65,-70.42,-130.62
557.296,545.584,785.192,86.52,-70.35,-120.89
541.192,488.488,719.312,87.5,-70.56,-111.86
516.792,352.336,726.144,84.14,-71.33,-96.53
517.28,256.688,762.744,74.69,-72.87,-64.12
569.984,299.144,725.656,61.53,-76.16,-23.45
610.488,438.224,659.776,49.77,-81.27,3.22
513.864,425.048,622.2,40.88,-86.87,11.62
427.0,430.904,637.816,32.83,-91.0,9.38
389.424,457.256,630.984,24.57,-93.38,1.33
396.256,455.792,586.088,15.96,-94.71,-11.34
437.248,533.384,616.344,7.35,-95.83,-26.95
399.672,576.328,649.528,-0.07,-97.09,-43.47
366.0,631.96,660.264,-6.23,-97.86,-57.4
378.688,679.784,639.28,-11.34,-98.07,-66.29
391.376,716.384,622.688,-15.96,-97.93,-68.53
387.472,752.984,610.488,-20.51,-97.65,-64.33
389.424,801.296,590.48,-25.13,-96.95,-55.09
359.168,860.832,582.184,-29.61,-96.25,-42.84
343.552,915.976,595.848,-33.67,-95.48,-31.22
322.08,962.824,623.176,-37.03,-95.06,-22.68
299.144,1018.944,628.544,-39.34,-94.57,-18.06
248.88,1041.392,623.176,-40.6,-93.73,-16.66
222.528,1044.808,611.464,-41.23,-92.12,-17.15
200.568,1040.416,585.112,-41.58,-89.81,-18.9
189.344,1039.44,565.104,-41.79,-87.08,-21.56
184.952,1031.144,550.952,-41.86,-84.14,-24.71
138.104,1075.064,452.864,-42.14,-81.27,-28.21
30.256,1038.464,422.12,-42.42,-78.47,-33.81
-3.416,1006.744,560.712,-43.19,-75.46,-41.51
-7.808,1098.488,308.904,-43.12,-72.94,-50.19
46.848,1099.464,244.488,-41.3,-71.89,-57.12
-42.944,995.032,296.216,-39.06,-72.24,-61.53
-75.64,990.152,289.872,-37.24,-71.89,-63.28
-65.392,994.056,263.032,-34.93,-71.4,-62.58
-69.784,980.392,243.024,-32.27,-70.7,-60.62
-57.584,945.256,245.952,-29.47,-69.58,-58.38
-29.28,932.08,242.048,-26.74,-67.9,-56.77
8.296,932.568,253.272,-23.87,-65.73,-54.81
39.528,923.784,275.72,-21.0,-62.86,-51.45
58.072,924.76,277.672,-18.06,-59.22,-45.5
61.0,958.432,273.28,-15.19,-54.88,-36.89
42.944,955.992,286.944,-12.39,-49.91,-26.32
42.944,963.8,300.608,-9.94,-44.31,-15.05
65.88,980.88,292.8,-7.7,-38.57,-4.9
68.808,965.264,283.04,-5.46,-32.83,3.01
54.656,970.144,300.12,-3.36,-27.16,8.54
37.576,1000.4,307.928,-1.05,-21.49,11.48
18.056,1009.184,303.536,1.68,-15.82,12.18
18.056,1018.456,305.0,4.34,-9.94,11.34
41.968,1031.144,304.512,6.86,-4.06,9.66
60.512,1023.824,292.8,8.96,1.82,8.75
72.224,1013.576,300.12,10.64,7.77,10.29
63.44,1006.744,305.976,11.62,13.86,14.42
47.824,997.472,283.04,12.32,20.09,20.09
53.68,987.712,265.96,12.74,26.46,25.48
69.784,964.288,288.408,12.74,32.69,29.47
80.52,940.864,307.44,12.18,38.5,30.45
90.768,928.664,301.584,11.13,44.03,27.3
102.48,922.808,297.68,9.73,49.14,20.3
118.584,923.784,314.272,8.19,53.83,11.13
127.856,911.096,332.328,6.65,58.1,1.33
141.032,894.504,342.088,5.04,62.02,-8.05
177.632,893.04,350.872,3.15,65.45,-16.45
199.104,874.984,366.976,1.54,68.18,-23.31
220.088,875.472,372.832,-0.42,70.21,-28.56
251.32,882.792,370.88,-2.1,71.47,-32.76
277.184,883.28,367.464,-3.36,71.96,-36.33
290.848,885.72,383.568,-4.48,71.61,-38.64
290.848,879.376,399.184,-5.39,70.63,-39.13
286.944,885.232,403.576,-6.02,69.23,-38.5
282.064,894.992,396.256,-6.3,67.41,-37.38
294.752,891.576,395.28,-6.23,65.17,-36.82
315.736,878.4,406.992,-5.95,62.51,-37.1
330.864,874.008,418.216,-5.67,59.29,-37.38
334.768,877.424,415.776,-5.32,55.58,-36.82
323.544,882.304,425.536,-4.69,51.66,-34.86
322.568,877.424,438.224,-3.85,47.6,-31.99
318.664,863.76,441.64,-3.08,43.4,-28.63
328.912,854.0,434.32,-2.38,39.06,-25.41
346.968,852.048,435.296,-1.75,34.3,-22.4
356.24,845.704,445.544,-1.4,29.4,-19.32
347.456,818.864,444.08,-1.33,24.43,-15.4
334.28,811.056,435.296,-1.68,19.6,-10.78
331.84,799.344,434.32,-2.17,14.98,-5.88
344.528,745.664,433.832,-2.8,10.5,-0.49
355.264,676.368,431.88,-3.99,5.95,5.95
376.248,634.4,440.176,-5.81,1.19,13.58
395.768,629.032,433.344,-7.77,-3.92,21.35
424.56,605.12,415.288,-9.73,-9.45,28.63
386.496,605.12,395.768,-11.76,-15.19,36.05
375.76,691.496,437.736,-13.65,-20.09,45.01
451.888,845.216,466.04,-14.49,-24.64,54.6
406.016,1037.0,451.4,-13.23,-29.4,62.09
415.288,1178.52,460.184,-9.59,-33.81,66.57
231.312,1188.28,493.368,-4.2,-38.01,67.48
8.296,1004.792,607.072,0.77,-40.04,65.03
120.048,1073.112,647.088,3.92,-39.55,60.83
274.256,1222.44,582.672,7.77,-39.97,51.66
280.112,1323.944,560.224,13.44,-41.79,36.89
221.064,1266.36,557.784,19.74,-43.75,22.19
185.928,1194.624,517.768,25.2,-45.01,13.09
194.712,1175.104,490.928,29.61,-45.78,10.43
275.232,1175.592,469.944,33.32,-46.41,12.67
312.808,984.296,414.312,36.33,-47.67,17.57
247.904,480.68,338.672,35.28,-49.21,23.24
99.552,-26.84,281.088,26.18,-49.84,26.67
153.72,162.016,225.456,10.22,-48.79,23.87
271.816,576.816,230.824,-4.83,-48.3,15.4
153.72,644.16,297.192,-15.96,-48.3,7.56
77.592,630.008,307.928,-25.55,-46.76,2.94
117.12,690.032,282.064,-34.44,-44.38,-1.33
119.072,722.728,290.848,-41.93,-42.35,-7.63
94.672,742.248,309.392,-47.95,-40.88,-14.42
87.352,766.16,309.88,-52.5,-39.9,-20.37
116.632,771.528,288.408,-55.58,-39.83,-25.69
131.76,803.736,290.848,-56.84,-40.88,-30.03
105.896,834.968,318.664,-56.42,-42.63,-31.92
93.208,880.352,321.104,-54.25,-44.73,-31.85
138.592,902.312,332.816,-50.47,-47.46,-32.69
158.6,936.472,320.128,-45.99,-51.31,-34.65
142.496,933.544,313.784,-41.09,-55.79,-35.07
180.56,972.096,323.056,-36.47,-60.41,-32.34
193.736,1044.32,334.768,-31.57,-65.52,-26.04
108.824,1062.864,387.472,-26.46,-71.05,-15.75
64.416,1173.64,371.856,-21.49,-76.44,-3.99
33.184,1251.232,362.096,-16.38,-82.67,4.06
-20.984,1277.096,353.312,-12.18,-89.53,5.88
-48.312,1357.616,325.496,-9.66,-96.46,1.26
-122.976,1307.84,289.384,-9.38,-102.69,-8.19
-52.216,1238.544,264.984,-12.95,-107.73,-21.63
29.768,1181.936,223.016,-21.07,-113.05,-39.83
88.328,1104.832,210.816,-33.6,-118.93,-60.76
114.68,1090.192,255.224,-49.7,-125.02,-80.36
127.856,1115.08,247.904,-67.83,-130.69,-96.11
140.056,1140.456,277.672,-86.38,-135.38,-106.12
138.104,1173.64,342.088,-104.51,-138.6,-108.36
101.504,1251.232,368.44,-121.45,-140.28,-105.14
40.016,1328.824,425.048,-136.43,-139.86,-102.62
-60.512,1435.208,527.04,-149.1,-137.2,-105.56
-130.296,1537.2,614.88,-158.76,-133.42,-121.03
-181.048,1658.224,729.072,-166.18,-130.13,-150.15
-177.144,1659.2,845.216,-172.69,-126.84,-174.3
-188.856,1631.872,894.504,-180.95,-123.2,-187.46
-173.24,1556.72,925.248,-191.52,-119.21,-196.56
-199.592,1460.584,950.624,-204.82,-114.59,-206.85
-205.448,1350.784,947.696,-220.36,-109.13,-218.19
-209.84,1258.064,989.176,-237.72,-103.04,-226.94
-185.928,1197.064,1025.776,-256.06,-96.25,-230.37
-154.208,1134.6,1112.152,-275.03,-89.39,-232.54
-141.52,1114.592,1141.92,-293.58,-82.6,-236.25
-67.344,1072.136,1188.28,-311.08,-76.23,-241.43
22.936,1025.776,1305.4,-326.76,-70.7,-244.44
150.304,949.648,1422.52,-339.92,-66.15,-239.75
205.936,901.336,1485.472,-350.7,-62.44,-227.22
237.656,823.744,1521.096,-359.1,-59.15,-215.25
316.224,760.792,1465.464,-365.82,-57.12,-213.57
408.944,670.512,1388.848,-370.65,-57.26,-223.23
521.184,620.736,1332.728,-373.87,-59.85,-235.9
620.736,521.672,1246.84,-374.92,-64.4,-242.76
724.68,440.664,1243.912,-373.87,-69.72,-236.04
744.2,380.152,1170.712,-370.86,-74.41,-213.92
781.776,327.936,1121.424,-365.75,-78.12,-185.99
773.968,320.128,1030.168,-358.61,-81.48,-164.15
768.112,313.784,893.04,-349.3,-84.91,-153.37
743.224,295.728,743.712,-338.03,-88.41,-149.94
799.832,226.92,579.744,-325.15,-91.84,-149.1
868.152,187.88,450.424,-310.8,-95.9,-147.28
860.344,191.296,345.016,-294.7,-100.1,-138.81
896.456,151.28,193.736,-276.71,-103.53,-123.76
893.04,148.84,85.888,-257.46,-106.82,-108.99
904.752,183.488,-31.232,-236.88,-109.9,-98.07
965.264,145.912,-197.64,-214.9,-113.19,-92.82
1038.952,116.632,-340.136,-191.94,-117.39,-91.35
1078.48,154.208,-438.712,-167.86,-122.57,-89.25
1154.12,144.936,-570.472,-142.52,-128.38,-83.02
1250.256,224.968,-675.88,-116.34,-135.1,-72.87
1387.872,202.032,-827.648,-89.25,-143.01,-60.48
1511.336,305.488,-893.528,-61.53,-152.53,-46.97
1646.512,379.176,-983.32,-31.99,-163.45,-31.15
1782.176,453.352,-1015.528,-0.7,-176.33,-13.86
1897.832,544.608,-1093.12,32.34,-191.59,3.43
2075.952,661.728,-1196.576,67.2,-209.79,20.23
2264.808,867.176,-1280.024,104.37,-231.63,37.31
2550.288,1310.28,-1351.272,145.32,-258.16,55.58
2990.952,1802.672,-1497.184,192.64,-290.64,72.45
3628.28,2319.464,-1634.8,248.01,-330.82,87.36
4535.472,2849.432,-1828.536,312.76,-380.87,106.12
5011.272,4039.176,-1927.112,389.48,-441.7,142.1
5382.152,4910.256,-2196.976,480.62,-511.7,188.02
5719.848,6510.408,-1551.84,584.36,-592.13,220.15
6447.944,7977.336,-139.568,704.06,-685.58,230.37
6569.944,9553.088,1978.352,838.25,-792.19,225.19
6391.336,9892.248,4199.728,977.41,-902.23,223.93
6513.336,10121.12,6457.704,1100.19,-1009.82,230.86
6651.44,7668.92,7374.168,1179.78,-1116.85,266.28
6451.848,1316.624,7213.616,1130.85,-1200.99,439.88
2236.504,2864.56,4960.52,269.43,-1079.75,1683.36
-2032.032,6886.656,4584.76,-189.84,-1289.05,809.34
1447.896,4699.44,2918.24,-103.39,-1332.1,-770.0
4433.48,1701.168,1959.32,174.23,-1288.7,-1022.7
4773.616,323.544,1321.016,339.5,-1177.33,-323.75
3848.856,853.512,1087.752,314.65,-1086.05,428.61
1830.976,612.44,239.608,191.73,-1020.88,646.03
-463.112,84.424,-871.568,86.87,-939.89,401.1
-1841.712,-696.864,-1626.992,41.86,-821.73,122.78
-2069.12,-846.192,-1681.648,35.28,-675.78,-0.21
-1911.984,-357.704,-1592.832,47.39,-525.91,-29.4
-1450.336,315.736,-1168.272,75.74,-389.69,-60.41
-937.936,767.624,-1007.232,117.39,-275.38,-130.83
-108.824,390.888,-1093.12,162.4,-182.42,-229.04
821.792,-460.184,-1384.456,195.02,-108.43,-341.88
1723.616,-1031.144,-1211.704,207.27,-49.42,-428.75
2473.184,-1247.328,-806.176,203.0,-4.41,-451.43
2808.44,-1147.776,-367.464,191.59,25.97,-409.22
2783.552,-945.256,73.2,180.74,43.68,-322.28
2527.352,-590.968,434.808,174.79,51.94,-220.36
2210.64,-363.56,620.248,174.65,53.34,-130.9
1927.112,-335.744,554.856,177.8,50.12,-71.33
1716.296,-531.92,441.64,179.97,43.75,-43.75
1586.976,-798.856,446.032,178.15,35.7,-43.4
1384.944,-1107.272,360.144,171.01,27.65,-58.17
1152.168,-1340.048,242.048,158.97,22.26,-72.52
992.592,-1475.224,175.192,143.78,20.02,-79.94
866.688,-1512.8,162.016,127.19,20.02,-81.9
675.392,-1479.128,213.744,111.16,21.91,-78.54
459.696,-1481.08,206.424,96.25,26.25,-70.07
276.208,-1472.296,298.168,82.32,32.97,-59.99
187.392,-1463.024,40.992,69.02,40.74,-53.62
76.128,-1482.056,75.152,56.84,48.37,-58.87
61.488,-1459.12,83.936,45.36,55.58,-74.83
102.968,-1476.688,28.304,35.07,61.74,-95.48
117.12,-1456.192,-20.496,25.97,66.5,-115.08
135.664,-1382.992,32.696,18.55,70.42,-126.98
199.104,-1283.928,31.72,13.02,73.22,-132.16
279.624,-1193.648,-46.848,9.59,74.34,-136.64
433.344,-1071.648,-94.184,7.77,73.29,-145.18
662.704,-998.448,-138.592,7.56,69.23,-158.76
844.24,-974.536,-54.168,8.47,62.16,-171.92
918.416,-990.64,-9.76,10.15,53.41,-176.61
962.336,-971.12,65.88,12.18,44.59,-169.75
988.2,-945.744,73.688,14.42,36.19,-156.38
1048.224,-997.472,1.952,16.45,28.07,-143.78
1156.56,-1154.608,-44.896,16.94,19.81,-136.08
1158.512,-1330.288,-32.208,14.77,11.34,-129.15
1112.64,-1462.048,70.76,10.01,3.99,-116.13
1073.6,-1508.896,38.552,3.22,-1.89,-97.3
1033.584,-1452.776,21.472,-4.27,-6.58,-78.68
1018.456,-1337.12,79.544,-11.27,-10.5,-65.31
990.64,-1230.248,68.808,-17.01,-14.14,-59.08
957.944,-1178.52,39.04,-21.63,-17.29,-56.77
904.752,-1114.592,8.784,-25.62,-19.53,-54.6
832.04,-1009.672,-32.696,-28.98,-20.58,-50.68
764.208,-909.632,-44.408,-31.29,-20.37,-45.5
710.04,-818.376,-55.632,-32.41,-19.11,-40.11
669.536,-750.544,-76.128,-32.62,-17.08,-35.91
623.664,-691.984,-96.136,-32.2,-14.49,-33.18
613.416,-655.872,-63.44,-31.36,-11.62,-31.71
606.096,-646.112,-66.856,-30.38,-8.61,-31.22
595.36,-633.912,-112.728,-29.33,-5.6,-30.1
581.696,-586.576,-126.392,-28.21,-2.45,-26.95
551.44,-524.112,-76.616,-26.46,0.91,-21.77
527.04,-465.064,-37.088,-23.87,4.48,-16.52
502.152,-393.816,-68.32,-20.79,7.98,-13.37
412.848,-528.992,0.976,-17.36,11.55,-12.11
455.792,-470.432,29.28,-15.12,15.19,-17.99
443.104,-465.064,-8.296,-12.67,17.78,-32.06
399.672,-432.856,-0.488,-10.01,20.23,-47.46
406.992,-388.936,21.472,-7.14,22.89,-62.58
427.488,-335.256,41.48,-3.5,25.13,-78.96
443.104,-303.536,74.176,0.7,27.16,-96.04
440.664,-290.36,65.88,5.11,29.19,-112.56
447.496,-298.656,35.624,9.45,31.5,-127.68
454.816,-281.088,28.792,13.44,34.02,-140.91
444.08,-275.72,63.928,17.29,36.89,-152.39
470.92,-264.496,73.688,20.93,40.11,-163.87
518.744,-242.048,45.384,24.43,43.33,-176.33
542.168,-231.8,26.84,27.58,46.62,-188.16
560.224,-198.128,48.8,30.66,49.98,-197.96
569.984,-153.72,97.6,33.6,53.62,-206.22
607.56,-110.288,142.496,36.75,57.26,-215.53
644.648,-113.704,144.448,39.69,60.76,-228.62
671.488,-135.664,149.816,41.65,64.05,-244.37
696.376,-154.696,170.312,42.35,67.55,-260.47
710.528,-165.92,187.392,41.51,71.05,-276.22
739.808,-163.48,184.952,39.27,74.76,-291.83
777.384,-140.544,182.512,35.84,78.12,-308.21
840.824,-87.352,166.408,31.36,80.99,-325.71
903.776,-13.176,199.592,26.46,83.02,-342.44
927.688,50.264,264.496,21.63,84.42,-355.39
927.2,103.944,276.696,16.66,85.61,-362.67
925.248,136.64,269.864,11.62,86.66,-363.3
906.704,162.992,288.896,6.3,87.64,-357.98
881.816,167.872,295.728,0.77,88.34,-349.23
926.224,284.016,379.664,-5.53,88.69,-340.97
761.28,315.248,450.912,-12.67,88.41,-340.13
913.536,366.0,461.16,-22.4,88.2,-346.5
742.248,366.488,440.176,-33.39,86.94,-354.83
804.712,461.16,393.816,-44.87,85.54,-357.84
830.576,493.856,368.928,-54.67,83.3,-354.55
932.08,508.496,359.168,-62.51,80.15,-345.94
907.192,555.832,429.928,-68.25,76.23,-332.64
908.168,634.4,462.624,-71.75,72.03,-317.38
773.48,616.832,500.688,-73.01,66.78,-302.12
707.6,745.176,523.624,-73.5,60.76,-285.81
683.2,749.568,505.568,-72.94,53.06,-266.21
741.76,772.992,463.112,-72.1,44.24,-250.11
751.52,754.448,460.672,-70.7,34.72,-238.7
763.232,744.688,516.304,-68.74,25.76,-228.62
756.4,744.2,570.96,-66.01,17.85,-217.28
784.216,873.52,587.064,-62.09,11.41,-204.33
766.648,926.712,686.128,-56.91,6.09,-189.98
798.856,890.6,684.176,-50.96,1.26,-173.6
621.224,693.936,729.072,-45.99,-3.29,-156.8
464.576,518.256,782.264,-43.47,-6.72,-142.66
478.728,593.408,783.728,-42.98,-9.45,-131.25
635.376,665.632,815.448,-42.49,-13.3,-119.63
583.16,567.544,772.504,-41.65,-19.11,-105.42
355.264,508.984,731.512,-40.95,-24.22,-91.98
513.376,643.184,788.608,-39.41,-27.58,-83.37
601.704,725.656,804.224,-35.0,-32.76,-80.99
698.816,762.256,800.32,-28.63,-39.62,-83.02
763.72,844.728,759.816,-20.23,-48.93,-85.4
211.792,755.912,843.264,-10.43,-57.82,-83.23
131.272,906.704,886.696,-0.42,-62.16,-79.17
144.448,1052.616,894.504,11.69,-65.38,-78.4
136.64,959.408,893.04,25.34,-68.53,-81.41
216.672,928.176,843.264,38.15,-70.98,-84.77
281.088,846.68,787.144,49.35,-73.36,-87.01
341.112,781.776,756.4,58.03,-75.25,-87.71
367.464,624.152,711.016,63.77,-76.51,-85.61
386.008,682.712,677.344,66.08,-76.65,-78.96
366.976,607.072,681.248,66.15,-75.67,-68.11
370.392,589.992,667.096,63.63,-73.57,-56.42
389.424,609.512,660.264,59.43,-71.19,-48.86
378.2,670.024,663.192,54.32,-69.09,-47.81
388.448,770.552,668.56,49.14,-67.48,-53.48
385.032,839.848,667.096,44.59,-66.5,-64.68
351.36,863.272,636.84,40.6,-66.01,-79.17
316.712,874.008,587.064,36.54,-65.59,-94.43
293.288,870.592,543.144,32.48,-65.24,-107.59
298.168,905.728,505.568,28.7,-65.03,-115.99
310.368,920.856,487.024,25.69,-65.17,-117.46
281.088,929.152,490.44,23.52,-65.31,-110.95
259.128,981.368,487.512,22.33,-65.17,-98.42
222.528,1033.584,497.76,22.4,-64.75,-83.65
202.032,1041.88,491.904,23.59,-64.05,-70.84
210.328,1056.032,478.728,25.2,-63.21,-62.37
216.184,1064.816,467.992,27.09,-62.58,-57.19
203.008,1049.2,457.744,28.7,-61.88,-52.64
188.856,1041.392,448.472,29.96,-60.83,-47.25
170.8,1030.656,437.736,30.94,-59.71,-40.95
130.296,1029.192,419.68,31.85,-58.45,-34.09
117.608,1034.56,405.528,32.83,-56.98,-27.79
144.448,1040.416,383.568,33.95,-55.58,-22.89
111.264,1004.304,399.672,35.0,-54.46,-17.78
65.392,957.944,411.872,35.35,-53.13,-10.64
44.408,920.856,404.064,34.72,-51.38,-1.26
20.496,907.192,381.128,33.25,-49.28,9.17
-8.784,849.12,383.568,30.87,-46.9,19.04
-54.168,812.032,357.216,27.44,-44.03,25.41
64.416,879.864,234.728,23.59,-41.23,25.62
-31.72,901.824,348.432,20.09,-39.2,24.08
-68.808,836.92,376.248,16.8,-36.33,23.31
-3.904,840.336,292.312,13.02,-33.67,20.44
-71.736,826.184,300.12,9.17,-31.43,16.03
-54.656,857.904,285.968,5.67,-28.7,12.25
-26.84,864.736,274.744,3.01,-25.83,10.01
-28.304,854.488,307.44,0.91,-22.89,10.5
-30.256,863.76,320.616,-0.84,-19.74,13.23
-5.856,871.08,310.368,-2.03,-16.73,16.38
31.232,874.984,276.696,-2.87,-14.21,19.6
20.008,898.896,254.736,-3.15,-12.04,23.66
53.192,874.496,257.176,-2.66,-9.87,28.56
34.648,829.112,310.856,-1.82,-7.91,32.83
31.232,845.704,317.688,-0.77,-6.09,34.16
9.76,903.776,386.008,0.84,-4.76,31.15
179.096,904.264,420.656,3.29,-4.13,24.71
161.528,893.04,389.912,5.95,-4.97,19.39
196.664,918.904,376.736,8.82,-5.81,17.43
187.88,931.592,382.104,12.25,-6.65,19.46
225.456,927.2,360.144,15.96,-7.28,23.45
245.464,912.072,368.44,19.25,-8.12,26.6
227.896,914.024,359.656,21.63,-9.31,29.05
221.552,891.576,343.552,22.75,-10.43,30.94
249.368,866.688,295.728,22.47,-11.48,31.15
296.216,822.768,267.424,21.0,-12.39,28.28
296.216,817.4,254.736,18.76,-12.67,23.31
316.224,807.64,229.848,16.31,-12.53,18.34
330.864,802.76,211.304,13.86,-12.39,14.35
337.208,819.84,212.768,11.2,-12.6,11.97
323.544,844.728,202.032,8.47,-13.3,11.2
303.048,879.376,186.416,6.16,-14.63,11.13
291.824,912.072,183.976,4.41,-16.59,10.71
250.344,946.72,195.2,3.29,-19.11,9.8
258.152,963.8,206.912,2.66,-21.84,7.91
265.96,979.904,212.28,2.31,-24.85,4.34
275.72,1008.208,209.352,1.96,-28.0,0.14
286.456,1035.048,196.176,1.96,-30.87,-3.29
259.128,1042.856,196.664,2.03,-33.18,-3.57
247.904,1068.232,174.704,2.17,-35.14,-0.56
247.416,1056.52,172.264,2.24,-37.17,2.45
270.352,1069.696,188.368,1.82,-40.04,2.52
303.536,1086.776,211.304,0.91,-44.1,-1.47
289.384,1049.688,259.616,-0.7,-49.07,-7.63
291.336,1051.152,292.8,-3.29,-54.11,-13.37
182.512,1109.224,209.352,-6.44,-58.94,-16.45
168.36,1058.472,229.36,-9.87,-62.3,-14.35
88.816,1004.304,239.12,-14.7,-64.89,-7.7
-117.12,1015.528,241.56,-20.86,-66.36,-3.43
51.728,1074.576,345.992,-27.72,-67.13,-12.46
1.464,1086.776,322.568,-34.72,-70.0,-34.09
-0.488,1135.576,301.584,-42.0,-73.36,-55.51
-32.208,1088.728,354.776,-49.49,-76.23,-67.13
-32.208,1072.624,370.392,-57.68,-78.12,-69.51
-14.64,1096.048,391.376,-66.36,-79.45,-69.51
2.44,1130.208,437.248,-74.55,-80.92,-72.87
-20.008,1152.168,460.672,-82.04,-82.6,-79.8
-51.728,1158.512,457.256,-88.76,-84.0,-87.01
-75.152,1169.736,482.632,-94.85,-84.42,-90.44
-66.856,1187.792,501.664,-100.45,-83.86,-90.09
-43.92,1223.416,533.872,-105.49,-82.81,-88.76
-0.976,1241.96,583.648,-110.39,-81.62,-87.29
-13.176,1238.056,611.952,-115.78,-80.36,-86.73
-92.72,1254.16,607.072,-122.29,-78.47,-88.34
-190.32,1279.536,571.936,-130.34,-76.23,-96.74
-265.96,1288.32,560.224,-140.07,-74.2,-112.21
-217.16,1303.448,574.376,-150.92,-72.31,-130.76
-150.792,1312.232,569.496,-162.4,-71.47,-151.06
-58.56,1301.496,555.832,-173.88,-72.03,-169.89
29.28,1278.072,574.376,-185.36,-73.64,-181.58
86.376,1268.8,614.392,-196.7,-75.88,-181.72
113.216,1260.016,675.392,-207.55,-77.98,-171.22
120.048,1254.648,731.024,-218.12,-79.8,-157.99
74.664,1242.448,783.24,-228.27,-81.2,-149.66
33.672,1223.416,845.216,-238.07,-82.32,-150.15
8.296,1182.912,879.376,-247.73,-83.72,-160.58
41.48,1109.224,864.248,-257.46,-85.82,-178.71
35.136,983.32,1021.872,-267.61,-88.97,-197.12
79.056,916.464,1096.048,-278.88,-92.26,-209.23
166.408,821.304,1139.48,-290.71,-96.32,-216.37
236.68,736.88,1209.264,-303.1,-101.08,-216.16
302.56,676.368,1301.984,-315.7,-106.05,-208.39
338.184,615.856,1312.72,-328.02,-111.09,-200.2
389.424,559.248,1358.104,-339.57,-116.27,-198.1
425.536,502.152,1345.416,-349.79,-121.94,-201.67
472.872,429.44,1329.8,-358.47,-128.24,-206.92
532.408,371.856,1298.568,-364.98,-135.17,-210.77
672.952,286.944,1227.808,-369.04,-142.94,-211.61
750.056,230.336,1172.176,-370.51,-151.41,-206.64
813.008,177.632,1062.864,-369.18,-159.32,-192.57
833.016,98.576,986.736,-365.05,-166.04,-171.85
846.68,47.824,852.536,-358.54,-171.36,-150.15
895.48,33.672,670.512,-349.37,-176.12,-134.82
952.088,90.28,480.192,-336.98,-181.37,-130.13
1065.792,109.8,267.912,-320.25,-187.74,-135.17
1171.688,182.512,135.176,-298.97,-195.44,-144.13
1352.736,189.832,-40.504,-272.86,-204.05,-147.91
1550.864,226.92,-200.568,-242.48,-213.71,-144.55
1842.688,317.2,-391.864,-208.11,-224.42,-134.54
2197.464,406.992,-604.144,-169.89,-237.16,-121.45
2508.32,506.544,-821.304,-128.1,-252.21,-105.91
2801.12,657.336,-955.504,-82.74,-269.22,-84.56
3054.88,922.808,-1032.608,-33.11,-287.63,-55.23
3377.448,1071.648,-1200.48,21.35,-307.86,-19.95
3606.808,1431.304,-1304.424,79.59,-330.82,18.48
3691.232,1951.512,-1533.784,143.5,-355.67,56.35
3899.608,2849.92,-1654.808,215.67,-381.64,87.15
4181.184,3570.208,-1911.496,300.93,-410.48,110.6
4200.216,4766.296,-1751.92,400.4,-442.05,149.87
4108.472,6159.536,-1513.776,516.46,-477.12,211.75
3944.504,7548.384,-862.296,647.85,-519.47,260.89
3599.488,8856.712,450.424,792.54,-570.64,278.46
3325.232,9763.416,2595.672,944.93,-627.76,270.97
3532.632,9743.408,4846.328,1093.96,-689.85,242.48
4328.072,9717.056,6877.872,1225.35,-755.93,220.85
5648.112,8999.208,8032.48,1325.59,-832.44,236.11
5889.672,2428.776,7233.624,1313.2,-906.5,370.09
5683.248,3735.64,1738.744,444.22,-815.99,994.35
-1611.376,3695.624,205.936,144.97,-910.91,565.67
358.68,5634.448,3297.904,296.59,-955.85,-222.81
754.448,2607.384,3188.592,403.55,-926.59,-385.56
3162.728,2126.216,2417.064,478.03,-840.21,-80.78
3192.496,1968.592,1771.44,471.45,-796.81,210.21
2971.432,784.216,777.872,411.67,-781.76,245.84
1652.856,-280.6,288.408,330.54,-760.9,145.04
680.272,-1020.896,324.52,241.01,-716.59,80.64
537.288,-1117.032,148.352,146.86,-656.25,68.39
810.08,-1104.832,122.488,57.89,-594.02,64.33
839.36,-825.696,115.656,-17.15,-534.94,49.56
771.528,-670.512,248.392,-72.03,-477.89,31.22
407.48,-272.304,583.648,-106.33,-421.12,16.66
96.624,-23.912,666.608,-121.66,-362.6,9.03
22.936,65.392,373.808,-123.76,-303.17,-4.2
180.072,-55.632,-232.776,-119.0,-246.61,-33.25
346.48,-259.128,-696.864,-111.79,-194.74,-69.79
485.56,-391.376,-727.608,-104.3,-147.63,-94.29
612.928,-488.0,-666.608,-96.04,-104.72,-95.27
678.32,-512.888,-590.48,-86.38,-66.01,-77.91
747.128,-610.488,-519.232,-75.53,-32.2,-59.78
782.264,-593.408,-580.232,-64.26,-3.71,-55.44
853.512,-612.928,-702.232,-52.71,19.81,-63.91
946.232,-563.152,-809.104,-41.44,38.99,-77.28
1034.56,-591.456,-896.944,-30.59,54.18,-85.68
1088.24,-599.264,-935.984,-20.44,66.36,-82.53
1107.272,-599.752,-909.632,-10.85,76.02,-67.41
1091.656,-632.936,-927.2,-1.89,83.58,-44.52
1047.736,-621.712,-943.792,6.23,89.18,-19.11
1013.088,-579.256,-988.2,13.86,93.31,5.32
989.664,-530.456,-1054.568,21.14,95.62,25.55
938.912,-536.8,-1151.192,27.93,96.32,38.64
888.16,-452.864,-1181.936,33.88,95.97,44.31
811.056,-454.328,-1217.072,39.34,94.85,43.33
730.048,-434.808,-1229.76,44.1,93.73,37.94
675.392,-478.728,-1244.4,48.09,92.61,29.68
639.768,-477.264,-1215.608,51.17,91.63,19.11
575.84,-430.416,-1184.864,54.11,90.44,8.26
536.312,-403.576,-1124.84,57.54,89.67,-2.52
580.232,-403.576,-1092.632,61.32,88.55,-17.78
604.144,-437.248,-1123.376,65.03,86.59,-38.43
653.432,-442.128,-1156.072,68.18,84.21,-59.36
745.176,-477.264,-1218.536,70.98,81.27,-78.26
820.816,-522.16,-1253.184,73.15,77.63,-94.5
882.304,-532.896,-1246.84,74.76,73.64,-106.54
862.296,-492.88,-1210.24,76.79,69.72,-113.12
868.152,-457.256,-1116.544,79.8,66.57,-114.1
899.384,-471.896,-1055.056,84.0,63.63,-113.33
872.056,-467.992,-1002.84,88.62,60.76,-111.93
838.384,-451.888,-956.48,93.73,58.73,-107.94
795.44,-460.184,-891.576,99.12,57.47,-101.08
771.04,-480.68,-848.632,104.44,56.98,-93.73
750.544,-528.504,-835.944,109.06,56.91,-89.67
772.016,-611.464,-838.872,112.42,57.05,-90.72
756.4,-685.64,-835.944,114.03,57.19,-95.76
736.88,-727.12,-808.128,113.89,57.89,-101.57
706.624,-771.04,-785.68,112.42,59.5,-106.05
674.904,-819.352,-749.08,109.83,61.81,-109.2
661.728,-821.792,-676.368,106.05,64.82,-111.44
641.72,-788.12,-577.792,101.85,68.11,-113.12
607.072,-750.056,-519.232,97.65,71.75,-113.54
549.488,-749.568,-417.24,93.8,75.95,-111.79
592.432,-680.76,-341.112,89.81,80.22,-109.48
606.096,-667.584,-254.248,85.89,83.58,-110.67
562.664,-720.288,-269.376,81.27,86.24,-115.29
523.624,-664.168,-298.168,76.02,89.11,-120.89
480.192,-599.264,-190.808,70.7,92.33,-127.4
452.376,-476.776,-125.416,65.87,95.9,-134.68
432.368,-485.072,-43.432,61.88,99.75,-141.89
445.544,-485.072,-1.952,57.68,103.46,-152.04
418.216,-439.2,29.768,52.99,106.75,-168.63
426.024,-410.896,71.248,48.09,110.04,-188.37
429.44,-391.376,119.072,42.77,113.4,-206.85
439.688,-374.296,87.352,36.89,116.83,-223.09
446.52,-307.928,81.496,30.52,120.12,-236.81
464.576,-223.504,95.648,24.64,123.06,-248.15
485.56,-146.4,160.064,19.39,125.58,-257.11
528.504,-85.888,238.632,14.91,127.33,-264.32
597.8,-59.536,237.656,10.99,128.24,-271.25
669.048,-14.64,208.864,7.21,128.1,-278.25
694.912,16.104,217.16,3.71,127.19,-284.2
719.312,60.024,207.4,0.49,125.93,-288.54
746.64,83.448,242.536,-2.1,124.46,-290.43
776.408,108.336,304.024,-4.48,122.85,-289.66
809.104,151.768,325.496,-6.51,120.96,-287.56
820.816,165.92,373.32,-8.19,118.86,-286.44
840.336,153.72,376.736,-10.15,116.83,-286.37
900.36,167.384,338.672,-12.67,114.94,-286.79
960.384,218.136,367.952,-15.4,112.7,-287.14
999.912,282.064,420.656,-17.99,110.32,-286.93
1021.872,362.584,427.0,-20.16,108.08,-285.95
1072.624,454.328,448.96,-21.84,105.84,-285.11
1128.744,512.888,504.592,-23.1,103.25,-284.48
1141.432,535.336,520.208,-24.22,100.31,-281.89
1133.624,557.296,505.568,-25.27,97.51,-275.45
1100.44,586.576,545.096,-26.18,94.92,-264.67
982.344,671.976,588.528,-26.88,92.47,-250.67
931.592,721.752,628.544,-27.65,89.88,-241.85
943.792,797.392,671.0,-27.93,86.94,-234.43
916.464,849.608,741.272,-27.3,83.93,-226.59
884.744,875.96,755.424,-26.6,80.57,-221.97
819.84,874.984,743.712,-25.97,77.21,-217.84
731.024,869.128,784.704,-25.48,73.99,-212.24
659.776,902.8,790.072,-25.2,70.56,-204.82
596.824,917.44,807.152,-25.13,66.22,-195.44
569.984,882.792,799.832,-25.76,60.62,-184.8
582.672,827.648,743.712,-26.67,54.46,-171.57
559.736,745.664,681.248,-26.95,48.51,-156.52
510.936,700.28,643.672,-26.11,43.4,-142.73
486.048,701.256,609.024,-24.15,39.27,-132.79
467.016,696.864,605.12,-21.0,35.77,-126.77
432.368,606.096,615.368,-17.01,32.83,-123.62
403.576,574.376,586.576,-13.37,30.94,-120.4
470.432,622.2,555.344,-10.01,29.68,-115.15
520.696,753.472,573.4,-6.37,28.14,-107.31
536.8,793.0,622.2,-1.96,25.62,-99.96
551.44,849.12,694.424,3.15,22.19,-94.71
564.128,929.152,741.76,9.24,17.92,-90.65
492.392,951.112,716.384,16.45,13.51,-85.05
411.384,952.088,677.832,23.73,10.22,-76.37
401.136,976.488,693.448,30.8,7.91,-65.73
386.984,911.584,687.104,37.45,5.81,-55.58
327.448,857.416,648.552,42.91,3.85,-47.25
301.584,917.44,625.128,47.39,2.03,-42.91
281.088,961.848,609.512,52.15,0.0,-44.45
277.672,1031.144,592.432,56.98,-2.24,-51.38
309.88,1079.944,563.64,62.3,-5.18,-63.21
323.544,941.84,470.92,67.34,-8.82,-79.45
322.568,726.144,390.888,69.79,-12.88,-96.46
301.584,526.552,363.072,68.25,-16.8,-110.18
212.28,342.088,342.576,62.23,-19.88,-117.53
143.472,311.344,284.016,52.22,-21.63,-117.67
122.488,435.296,243.024,40.6,-22.47,-111.58
120.048,542.168,215.696,29.47,-23.03,-101.08
118.584,585.6,191.296,19.18,-23.45,-88.41
155.672,646.112,175.68,9.24,-23.73,-75.95
182.024,714.92,192.272,0.07,-24.08,-65.31
181.536,824.72,243.024,-7.77,-24.5,-56.56
159.576,947.696,286.456,-13.72,-24.78,-49.63
160.064,1025.776,330.376,-17.43,-24.92,-44.52
166.408,1104.832,388.936,-19.25,-25.41,-41.72
142.008,1112.152,411.872,-19.74,-26.32,-41.09
120.048,1117.032,411.384,-19.53,-27.44,-41.3
110.288,1129.232,396.256,-19.04,-28.98,-41.37
96.136,1166.32,357.704,-18.06,-30.94,-40.32
83.936,1171.688,326.472,-16.73,-33.32,-37.59
91.744,1163.392,339.648,-15.26,-35.98,-33.74
92.232,1178.032,359.656,-13.72,-38.78,-29.82
103.944,1172.664,372.344,-11.97,-41.3,-27.09
112.24,1174.128,403.576,-10.08,-43.61,-25.9
121.024,1173.64,420.168,-8.12,-45.57,-25.13
135.664,1161.928,443.104,-5.95,-47.11,-23.87
130.296,1149.728,465.064,-3.71,-48.16,-20.86
128.344,1138.016,489.952,-1.61,-48.65,-15.96
118.584,1098.0,494.832,0.42,-48.58,-10.08
95.16,1076.528,478.24,2.1,-48.16,-3.85
65.88,1061.4,456.28,3.29,-47.46,1.89
40.992,1027.728,435.296,4.41,-46.62,6.3
24.888,1000.888,415.776,5.04,-45.71,9.03
-8.296,976.0,396.744,5.25,-44.87,10.29
-32.696,925.248,364.536,5.11,-43.82,10.29
-25.376,879.376,346.968,4.55,-42.56,9.52
-101.016,850.096,316.224,3.57,-41.16,7.98
-124.928,827.648,281.576,2.66,-39.06,5.67
-110.776,815.448,264.984,1.96,-36.75,2.1
-126.88,782.752,249.368,1.54,-34.44,-1.68
-52.216,725.656,252.296,1.19,-32.2,-4.13
-54.168,697.84,241.072,0.42,-30.52,-5.11
-55.144,706.136,231.8,-0.28,-28.98,-4.34
-40.016,713.944,234.728,-0.77,-27.44,-1.75
-32.208,731.024,249.368,-1.12,-26.11,2.52
-73.2,777.384,245.464,-1.4,-24.92,7.91
-123.464,794.464,239.608,-1.68,-23.52,13.09
-110.288,800.32,238.632,-2.17,-22.12,16.31
-100.528,782.264,259.616,-2.87,-21.28,16.38
-56.12,786.656,296.704,-3.78,-20.93,13.02
0.0,778.36,288.896,-4.9,-21.14,7.98
53.68,772.504,229.848,-6.16,-22.05,5.25
-14.64,732.488,291.824,-8.26,-23.17,7.28
-9.272,840.824,300.12,-10.64,-23.94,9.87
21.472,838.384,268.888,-12.18,-24.99,10.36
-24.4,928.176,287.92,-13.37,-26.25,10.29
-15.128,985.76,324.52,-13.51,-27.23,9.59
40.016,1077.016,337.696,-12.53,-28.49,7.77
102.48,1213.168,391.376,-9.73,-30.52,5.6
48.312,1250.744,439.2,-4.9,-32.83,5.11
54.656,1250.744,458.72,0.98,-34.58,7.84
72.712,1207.312,447.984,7.07,-35.98,13.37
35.136,1230.248,428.464,12.95,-37.17,21.21
22.448,1046.76,390.4,18.27,-37.73,30.87
33.672,1098.976,345.504,21.98,-37.8,39.62
52.704,1033.096,338.672,25.27,-38.08,43.05
47.336,990.64,316.712,27.58,-38.71,40.18
31.232,973.072,285.48,29.12,-39.27,31.5
56.608,897.92,284.992,29.47,-39.55,18.83
101.992,828.136,285.968,28.56,-39.69,4.83
110.288,760.792,272.792,26.18,-39.97,-7.21
95.16,763.232,256.688,22.75,-39.97,-14.84
157.136,786.656,219.112,18.69,-39.69,-16.45
226.432,792.512,195.2,14.42,-39.83,-11.48
246.928,797.392,245.952,10.29,-40.53,-1.47
300.12,854.976,264.984,6.65,-41.79,9.24
285.968,894.504,285.48,3.99,-44.03,18.27
256.2,911.584,325.008,2.24,-46.34,25.13
277.184,926.224,386.984,0.91,-48.65,28.77
284.504,974.536,386.496,-0.07,-51.1,28.07
265.472,993.08,419.192,-0.84,-53.76,24.71
244.0,1031.632,451.888,-1.54,-56.35,20.37
301.584,1039.44,499.712,-2.24,-59.15,15.12
296.216,1041.392,520.208,-3.43,-62.58,9.73
335.744,1055.544,506.056,-5.18,-66.36,5.18
325.496,999.424,507.032,-7.91,-70.7,2.45
302.56,937.448,491.904,-12.53,-75.25,2.8
318.664,959.408,514.84,-19.04,-79.8,3.99
312.808,994.056,564.616,-26.95,-84.84,2.59
232.776,1016.504,626.592,-36.05,-89.74,-2.59
188.368,1058.96,668.072,-46.27,-93.52,-12.11
171.288,1094.096,702.232,-57.26,-96.46,-24.78
142.008,1103.856,750.056,-68.74,-98.28,-35.56
148.84,1110.2,791.048,-81.13,-98.98,-41.23
68.32,1074.576,851.072,-94.22,-98.42,-43.61
14.152,1063.352,848.144,-108.36,-96.6,-45.22
12.688,1033.096,844.728,-123.27,-94.01,-49.07
-0.976,1055.056,877.424,-138.46,-91.56,-55.23
-18.544,1121.424,917.928,-152.88,-89.6,-64.68
-6.344,1160.464,998.448,-165.97,-88.69,-78.75
53.192,1196.088,1053.104,-178.01,-88.69,-94.64
110.776,1194.136,1130.696,-188.79,-89.67,-108.22
128.832,1175.592,1168.272,-198.73,-90.65,-116.48
165.92,1118.496,1161.44,-208.18,-91.14,-120.19
172.752,1067.744,1154.608,-217.49,-90.93,-119.07
147.376,1037.976,1124.84,-226.94,-89.53,-112.63
65.392,1044.808,1075.064,-236.04,-86.31,-103.39
-0.976,988.2,1164.856,-244.65,-81.06,-95.34
-16.592,975.512,1152.656,-253.33,-74.55,-93.59
46.848,902.8,1149.24,-262.08,-68.46,-101.08
50.264,835.456,1141.92,-271.32,-63.42,-113.68
13.664,826.672,1122.4,-281.33,-58.94,-125.51
0.0,793.976,1133.136,-291.27,-54.53,-133.91
26.84,769.576,1175.592,-301.28,-50.75,-139.65
87.84,725.168,1193.16,-311.01,-48.09,-144.27
124.928,674.416,1201.944,-320.81,-47.18,-149.24
160.552,607.56,1206.336,-330.68,-47.81,-157.85
186.904,543.632,1239.52,-340.69,-50.19,-171.29
222.04,491.416,1221.464,-350.7,-54.11,-186.83
331.84,338.184,1228.296,-360.57,-59.5,-198.45
428.464,254.248,1275.632,-370.16,-66.29,-199.01
521.672,199.104,1333.704,-378.7,-73.57,-186.62
566.568,155.672,1321.992,-385.07,-80.64,-167.72
630.008,123.952,1330.776,-389.13,-87.36,-150.85
685.64,113.704,1293.688,-390.95,-94.01,-140.63
739.32,50.264,1264.896,-390.04,-100.8,-136.78
768.6,20.008,1219.024,-386.68,-107.52,-135.38
837.896,-42.944,1100.44,-380.8,-114.1,-133.49
928.176,-123.464,952.576,-372.4,-120.47,-127.82
1000.888,-119.56,856.44,-361.34,-126.35,-114.52
1046.272,-115.168,738.832,-346.92,-131.18,-95.55
1059.936,-123.464,616.344,-329.0,-134.96,-78.19
1058.472,-132.248,461.648,-307.79,-138.04,-67.83
1077.504,-113.704,313.784,-283.43,-140.63,-63.21
1147.776,-74.664,147.376,-255.92,-143.29,-60.62
1268.8,-15.616,-31.232,-225.26,-146.72,-56.98
1370.304,37.088,-243.512,-192.22,-151.13,-49.35
1602.104,42.944,-513.376,-157.57,-157.08,-40.11
1781.688,53.68,-704.672,-122.22,-165.76,-32.76
1989.576,103.944,-857.904,-85.89,-176.82,-23.1
2119.872,232.776,-927.2,-47.32,-189.84,-6.65
2270.176,543.632,-1090.68,-5.53,-204.19,15.19
2498.072,808.616,-1249.28,41.02,-220.99,32.13
2799.168,1108.248,-1477.664,91.77,-241.57,42.21
3029.992,1390.8,-1585.512,147.7,-266.0,55.16
3309.128,1790.472,-1911.008,209.3,-293.72,79.24
3721.0,2332.64,-2182.336,278.6,-325.85,113.75
4027.464,3090.992,-2442.928,358.05,-364.35,156.17
4116.768,4417.376,-2394.128,451.22,-408.8,202.37
4165.08,6120.984,-1965.176,562.24,-459.34,239.96
3866.424,7430.288,-1185.352,690.97,-515.9,260.75
3453.576,8629.792,13.176,829.5,-574.42,265.58
3702.944,9552.112,1524.024,969.29,-634.69,259.84
4220.712,10612.048,3296.928,1101.24,-702.66,257.53
4667.72,9919.576,4181.184,1206.73,-782.25,282.38
4995.168,4953.2,3830.312,1226.33,-866.67,339.92
2483.92,5776.944,-527.04,510.02,-846.16,575.33
1268.312,7163.352,1095.072,268.8,-934.5,249.76
928.664,7339.52,2388.272,419.65,-959.7,-287.7
2463.912,5082.032,3127.592,562.52,-905.87,-419.3
3715.632,4179.232,3098.8,652.26,-842.8,-242.48
4563.776,3402.824,2230.16,678.93,-811.79,-74.9
4507.656,2615.68,1617.72,659.82,-804.65,-61.04
3738.08,1307.84,993.568,616.07,-791.77,-114.31
3400.384,209.352,328.912,550.13,-761.81,-133.21
3271.064,-502.64,-403.576,464.8,-725.55,-112.98
2889.448,-678.32,-567.056,368.34,-689.29,-72.94
2333.128,-653.432,-305.488,271.25,-651.56,-26.32
1769.0,-280.6,19.032,183.26,-608.44,3.99
1286.368,100.528,359.168,114.59,-559.58,1.05
1104.832,487.024,377.224,69.3,-506.31,-35.35
1169.736,651.968,283.04,47.04,-452.76,-91.91
1193.648,613.904,-68.32,41.58,-400.54,-154.28
1148.752,516.304,-386.984,45.64,-348.81,-208.74
1048.224,311.832,-676.368,53.27,-295.96,-239.26
960.384,205.936,-764.696,60.9,-241.85,-244.79
893.04,-81.496,-859.368,66.15,-188.16,-229.67
795.44,-286.944,-1000.888,67.76,-135.87,-199.78
845.704,-425.536,-980.88,66.08,-86.94,-166.39
931.104,-452.864,-863.272,63.14,-43.89,-146.23
980.392,-526.064,-777.384,59.78,-7.49,-136.78
1023.336,-590.48,-760.792,56.56,23.38,-126.49
978.928,-665.144,-888.648,53.27,49.28,-107.24
944.28,-674.416,-945.744,50.19,71.26,-78.19
862.296,-589.504,-907.68,48.23,89.39,-47.81
793.976,-564.128,-907.192,47.95,104.02,-23.8
744.2,-478.728,-855.952,48.79,115.57,-9.1
729.072,-417.24,-786.168,50.96,124.18,-1.82
661.24,-305.976,-685.152,54.32,130.27,1.61
656.848,-221.064,-584.136,59.43,134.75,5.46
691.008,-199.104,-652.456,65.73,137.13,10.15
753.96,-252.784,-783.24,72.17,137.27,15.05
814.96,-301.584,-842.288,77.84,134.89,18.83
846.68,-277.184,-843.264,82.67,130.34,19.53
833.504,-263.52,-855.464,87.36,124.46,16.87
849.12,-229.36,-829.6,92.12,118.02,12.32
869.616,-206.424,-852.048,97.3,111.09,7.35
841.8,-149.328,-878.4,103.18,104.09,3.43
786.656,-143.472,-875.96,109.97,97.65,1.89
731.512,-120.536,-876.448,117.39,92.33,2.1
692.96,-169.824,-917.44,125.37,87.99,3.08
668.56,-206.912,-927.688,133.14,84.35,2.94
619.272,-233.264,-892.064,140.63,81.2,-1.47
601.704,-242.048,-901.824,147.91,78.82,-12.6
587.064,-288.896,-922.32,154.77,77.21,-30.94
612.44,-385.032,-911.584,160.51,76.65,-53.83
637.816,-450.912,-887.672,164.5,76.93,-78.26
630.496,-553.88,-866.688,166.74,78.47,-100.8
641.232,-621.712,-865.224,166.88,81.69,-118.86
643.672,-691.008,-849.12,165.13,86.03,-132.79
644.16,-747.616,-742.736,161.91,91.56,-143.22
654.408,-779.824,-667.584,157.22,97.86,-151.13
657.824,-798.856,-627.568,151.2,104.37,-158.06
682.712,-767.624,-597.8,143.92,110.74,-164.64
698.816,-817.888,-498.248,136.01,116.69,-170.59
758.84,-818.376,-335.256,126.91,121.73,-179.83
784.704,-717.36,-222.04,117.18,125.37,-197.96
784.704,-642.696,-158.6,107.52,128.31,-221.13
746.152,-593.896,-63.928,97.58,131.11,-243.18
774.944,-469.456,-73.2,87.22,133.84,-264.25
803.736,-408.944,8.784,77.0,135.8,-286.44
800.808,-345.504,102.968,66.43,136.92,-308.28
810.568,-269.864,123.464,55.58,137.62,-328.3
816.424,-201.056,197.152,44.66,137.55,-347.27
849.12,-161.528,258.64,33.39,136.64,-366.8
889.136,-111.752,242.536,21.63,134.4,-386.33
918.416,-45.384,218.624,9.59,130.76,-402.78
939.4,10.736,236.68,-2.03,125.86,-413.14
925.248,93.208,252.784,-12.74,119.84,-416.99
917.928,173.728,248.392,-22.12,112.91,-415.45
906.216,244.488,243.512,-29.68,105.28,-410.2
860.344,278.16,257.664,-35.63,96.95,-401.94
804.712,313.296,258.64,-40.04,88.69,-391.51
795.928,342.576,255.712,-43.12,80.57,-380.03
807.152,344.04,245.464,-45.08,72.38,-367.57
776.896,341.112,257.664,-46.2,64.19,-353.01
713.456,336.232,268.4,-46.62,56.63,-336.0
654.896,336.72,270.84,-46.69,49.84,-318.29
630.496,314.76,265.96,-46.48,43.96,-301.63
628.544,320.616,284.504,-46.48,38.71,-287.07
527.04,366.0,305.488,-47.18,34.02,-275.87
458.232,330.376,334.768,-48.3,29.4,-268.73
458.72,434.32,336.232,-49.56,24.29,-262.36
505.568,446.032,318.664,-49.7,18.48,-259.0
570.96,469.944,345.016,-49.14,12.11,-256.48
618.784,498.736,400.16,-47.32,5.6,-252.77
634.4,543.144,450.912,-44.45,-0.56,-247.73
647.088,628.544,501.176,-40.32,-6.16,-242.34
649.528,726.144,580.72,-35.0,-10.99,-237.23
623.664,824.72,714.92,-29.05,-15.19,-232.75
619.272,991.128,867.176,-24.15,-18.48,-223.16
644.648,1074.576,1040.904,-22.05,-21.63,-196.63
691.984,1026.264,1127.28,-23.17,-25.62,-152.39
807.152,1092.144,1086.776,-25.69,-31.5,-108.15
889.624,1123.376,1045.784,-27.37,-39.34,-74.34
836.432,1028.704,1073.112,-29.26,-47.67,-49.91
702.72,935.496,1113.616,-32.55,-54.95,-32.34
603.168,915.976,1101.416,-36.82,-60.55,-20.23
545.584,973.072,1084.336,-40.81,-64.82,-13.86
490.928,1040.904,1090.192,-43.54,-68.32,-14.14
443.104,1077.016,1104.344,-45.01,-71.4,-20.16
418.704,1096.048,1113.616,-45.5,-74.27,-29.82
402.6,1088.728,1118.008,-45.43,-77.0,-40.81
379.664,1040.904,1104.832,-44.94,-79.31,-51.1
364.048,976.488,1069.696,-44.52,-81.13,-59.01
353.8,916.464,1034.56,-44.38,-82.18,-63.91
343.552,857.904,997.472,-44.59,-82.6,-66.08
323.544,795.928,957.456,-45.15,-82.46,-66.29
288.896,736.88,920.856,-45.78,-81.83,-65.94
248.392,684.176,888.648,-46.55,-80.71,-65.94
212.768,640.256,852.048,-47.25,-79.03,-66.71
177.144,603.656,813.496,-47.67,-77.0,-68.39
143.472,577.304,779.824,-47.67,-74.48,-70.91
110.776,536.8,741.272,-47.25,-71.61,-73.64
87.352,506.544,696.376,-46.48,-68.32,-76.02
68.808,492.392,663.192,-45.64,-64.89,-78.05
55.144,467.016,645.136,-44.38,-61.32,-79.73
47.824,447.984,624.152,-43.19,-57.82,-80.99
38.064,432.856,606.096,-42.07,-54.67,-82.11
30.256,420.656,598.288,-41.09,-51.73,-83.02
23.912,411.384,594.872,-40.18,-49.14,-83.72
29.28,446.032,605.608,-39.62,-46.69,-83.86
24.4,477.752,607.072,-38.43,-44.45,-83.86
17.08,516.304,601.216,-36.96,-42.28,-83.3
7.32,563.64,605.608,-35.14,-40.04,-81.41
-0.976,587.064,625.128,-33.11,-37.45,-78.12
9.76,650.016,656.848,-31.01,-34.51,-73.5
23.424,734.44,677.832,-28.49,-31.22,-68.18
30.256,793.488,694.912,-25.34,-27.86,-63.77
29.28,837.408,714.92,-21.84,-24.43,-60.83
38.064,885.232,731.512,-17.85,-21.07,-59.64
61.0,962.824,760.792,-13.86,-17.99,-59.85
88.328,1034.56,802.272,-9.66,-15.33,-60.62
118.584,1075.064,841.8,-5.25,-12.95,-61.11
141.52,1098.976,864.736,-0.98,-10.85,-61.04
156.16,1118.008,875.96,2.94,-9.31,-60.76
169.824,1111.664,887.184,6.3,-8.26,-60.13
178.608,1076.528,883.28,9.03,-7.77,-59.29
191.784,1028.216,860.344,10.71,-7.63,-58.31
209.352,980.88,828.136,11.2,-7.91,-57.47
224.968,942.816,789.584,10.92,-8.82,-57.33
230.336,906.704,746.152,10.08,-10.22,-57.96
233.752,871.568,704.184,8.68,-12.04,-59.22
227.408,822.28,671.976,7.0,-14.42,-60.55
217.16,773.968,650.016,4.76,-17.01,-61.04
210.816,733.952,626.592,2.17,-19.74,-60.62
200.08,692.96,599.264,-0.63,-22.61,-59.15
